time (s)	coil I (A)	last det (V)	int current (uC)
7883.674583	0.701243	0.282772	313.455475
7883.675485	0.255018	0.282772	543.481995
7883.676394	0.249492	0.282772	770.270386
7883.677347	0.241417	0.282772	1000.341003
7883.678271	0.478784	0.282772	1442.737549
7883.679169	0.100415	0.282772	1532.910278
7883.680111	0.101034	0.282772	1628.084229
7883.681018	0.103378	0.282772	1721.847778
7883.681910	0.102242	0.282772	1813.047974
7883.682843	0.100774	0.282772	1907.070068
7883.683749	0.101429	0.282772	1998.965088
7883.684644	0.101609	0.282772	2089.905029
7883.685533	0.103008	0.282772	2181.479004
7883.686477	0.100034	0.282772	2275.911377
7883.687370	0.101429	0.282772	2366.487793
7884.684235	0.714565	0.264217	315.123352
7884.685191	0.254608	0.264217	558.528748
7884.686109	0.248602	0.264217	786.745667
7884.687017	0.241117	0.264217	1005.679871
7884.687920	0.491843	0.264217	1449.814331
7884.688885	0.099536	0.264217	1545.866699
7884.689785	0.101367	0.264217	1637.097168
7884.690682	0.102393	0.264217	1728.943359
7884.691568	0.102063	0.264217	1819.371216
7884.692503	0.099723	0.264217	1912.612183
7884.693417	0.101396	0.264217	2005.288574
7884.694316	0.102085	0.264217	2097.062988
7884.695244	0.099957	0.264217	2189.823242
7884.696148	0.099302	0.264217	2279.592041
7884.697053	0.100953	0.264217	2370.954834
7885.714893	0.714525	0.272878	314.391083
7885.715816	0.254568	0.272878	549.357239
7885.716767	0.248705	0.272878	785.875488
7885.717676	0.241161	0.272878	1005.090698
7885.718576	0.481721	0.272878	1438.639771
7885.719508	0.099950	0.272878	1531.793091
7885.720420	0.102235	0.272878	1625.031494
7885.721347	0.101770	0.272878	1719.372314
7885.722235	0.101924	0.272878	1809.880615
7885.723189	0.101030	0.272878	1906.263550
7885.724085	0.101642	0.272878	1997.334595
7885.724976	0.101788	0.272878	2088.028076
7885.725908	0.100258	0.272878	2181.468018
7885.726839	0.100485	0.272878	2275.019287
7885.727737	0.101202	0.272878	2365.898926
7886.717895	0.733850	0.260967	319.958649
7886.718858	0.255297	0.260967	565.809326
7886.719788	0.248705	0.260967	797.104797
7886.720700	0.241282	0.260967	1017.153748
7886.721645	0.447305	0.260967	1439.856689
7886.722562	0.099617	0.260967	1531.205200
7886.723462	0.102689	0.260967	1623.625488
7886.724348	0.102737	0.260967	1714.650269
7886.725296	0.100107	0.260967	1809.552124
7886.726193	0.100023	0.260967	1899.272949
7886.727086	0.102250	0.260967	1990.582031
7886.727979	0.101492	0.260967	2081.214111
7886.728926	0.099441	0.260967	2175.384766
7886.729832	0.100305	0.260967	2266.261230
7886.730737	0.102502	0.260967	2359.025879
7887.755756	0.651793	0.262928	303.735626
7887.756678	0.254901	0.262928	538.754456
7887.757586	0.248822	0.262928	764.684875
7887.758487	0.241208	0.262928	982.013733
7887.759453	0.476788	0.262928	1442.591309
7887.760355	0.101085	0.262928	1533.770142
7887.761245	0.101356	0.262928	1623.977173
7887.762170	0.100481	0.262928	1716.921997
7887.763083	0.100920	0.262928	1809.062378
7887.763984	0.101763	0.262928	1900.750610
7887.764872	0.101887	0.262928	1991.226440
7887.765807	0.099818	0.262928	2084.556396
7887.766696	0.101125	0.262928	2174.457031
7887.767617	0.102180	0.262928	2268.564941
7887.768521	0.100400	0.262928	2359.326904
7888.750033	0.700613	0.268991	311.772675
7888.750928	0.255088	0.268991	540.076294
7888.751894	0.249280	0.268991	780.880615
7888.752805	0.241666	0.268991	1001.038574
7888.753715	0.488016	0.268991	1445.133423
7888.754611	0.100111	0.268991	1534.833008
7888.755563	0.100272	0.268991	1630.292114
7888.756476	0.101913	0.268991	1723.338501
7888.757373	0.102092	0.268991	1814.915283
7888.758302	0.099716	0.268991	1907.551025
7888.759210	0.099536	0.268991	1997.929810
7888.760112	0.101525	0.268991	2089.505127
7888.761000	0.101990	0.268991	2180.072021
7888.761943	0.099283	0.268991	2273.696289
7888.762845	0.099675	0.268991	2363.603516
7889.792988	0.678124	0.269491	306.511932
7889.793889	0.254872	0.269491	536.151428
7889.794782	0.249573	0.269491	759.019897
7889.795744	0.241531	0.269491	991.372498
7889.796657	0.488368	0.269491	1437.252441
7889.797546	0.101396	0.269491	1527.393921
7889.798479	0.101034	0.269491	1621.658569
7889.799388	0.100931	0.269491	1713.405273
7889.800288	0.102858	0.269491	1805.977173
7889.801177	0.102323	0.269491	1896.942261
7889.802120	0.099961	0.269491	1991.205444
7889.803033	0.101569	0.269491	2083.937500
7889.803935	0.101730	0.269491	2175.697754
7889.804821	0.100671	0.269491	2264.892578
7889.805773	0.099814	0.269491	2359.916016
7890.782158	0.695339	0.274095	304.558624
7890.783061	0.254773	0.274095	534.618591
7890.783959	0.250012	0.274095	759.129517
7890.784908	0.241392	0.274095	988.210144
7890.785840	0.492268	0.274095	1447.003906
7890.786742	0.101942	0.274095	1538.955688
7890.787630	0.101415	0.274095	1629.012085
7890.788576	0.100276	0.274095	1723.873047
7890.789487	0.101689	0.274095	1816.512085
7890.790380	0.101744	0.274095	1907.369873
7890.791323	0.099998	0.274095	2001.667603
7890.792218	0.099338	0.274095	2090.575439
7890.793117	0.101470	0.274095	2181.796631
7890.794007	0.100316	0.274095	2271.078125
7890.794947	0.099207	0.274095	2364.332275
7891.828226	0.563544	0.273575	273.882263
7891.829141	0.255505	0.273575	507.669678
7891.830049	0.249089	0.273575	733.842834
7891.830947	0.241608	0.273575	950.806519
7891.831914	0.479249	0.273575	1414.240479
7891.832823	0.101583	0.273575	1506.579712
7891.833717	0.102429	0.273575	1598.151367
7891.834651	0.100990	0.273575	1692.476074
7891.835546	0.100356	0.273575	1782.295044
7891.836445	0.102887	0.273575	1874.790405
7891.837333	0.101748	0.273575	1965.142700
7891.838283	0.099767	0.273575	2059.921143
7891.839180	0.100496	0.273575	2150.065674
7891.840084	0.101418	0.273575	2241.748047
7891.840989	0.100269	0.273575	2332.490967
7892.814818	0.687502	0.269926	309.376099
7892.815727	0.255201	0.269926	541.354187
7892.816637	0.249562	0.269926	768.455383
7892.817546	0.241600	0.269926	988.070068
7892.818496	0.499797	0.269926	1462.877563
7892.819407	0.101151	0.269926	1555.026245
7892.820304	0.101865	0.269926	1646.399414
7892.821234	0.100444	0.269926	1739.812622
7892.822138	0.100364	0.269926	1830.541504
7892.823033	0.103206	0.269926	1922.910522
7892.823920	0.101506	0.269926	2012.946655
7892.824870	0.099540	0.269926	2107.509521
7892.825774	0.100148	0.269926	2198.042969
7892.826670	0.101060	0.269926	2288.592285
7892.827587	0.100049	0.269926	2380.337158
7893.862868	0.714719	0.274139	316.620636
7893.863765	0.254744	0.274139	545.125671
7893.864732	0.248591	0.274139	785.513428
7893.865642	0.241501	0.274139	1005.279785
7893.866552	0.503749	0.274139	1463.691162
7893.867456	0.100961	0.274139	1554.959595
7893.868379	0.100466	0.274139	1647.689941
7893.869286	0.102389	0.274139	1740.556641
7893.870173	0.102902	0.274139	1831.830322
7893.871097	0.100653	0.274139	1924.833740
7893.872008	0.100239	0.274139	2016.151733
7893.872908	0.101748	0.274139	2107.725098
7893.873797	0.101158	0.274139	2197.655029
7893.874752	0.099452	0.274139	2292.631592
7893.875647	0.099650	0.274139	2381.818115
7894.851573	0.624177	0.264649	295.860016
7894.852491	0.254905	0.264649	529.862610
7894.853391	0.248925	0.264649	753.894714
7894.854330	0.241289	0.264649	980.465149
7894.855257	0.495967	0.264649	1440.226318
7894.856154	0.102382	0.264649	1532.062622
7894.857043	0.101895	0.264649	1622.646851
7894.858000	0.100349	0.264649	1718.680908
7894.858915	0.100397	0.264649	1810.543945
7894.859818	0.101327	0.264649	1902.042114
7894.860734	0.101074	0.264649	1994.626099
7894.861650	0.099569	0.264649	2085.831299
7894.862560	0.101444	0.264649	2178.145508
7894.863449	0.102253	0.264649	2269.048828
7894.864382	0.099902	0.264649	2362.257812
7895.896012	0.714397	0.272874	313.620270
7895.896906	0.255205	0.272874	541.773621
7895.897866	0.249664	0.272874	781.451355
7895.898770	0.241732	0.272874	999.977234
7895.899686	0.498915	0.272874	1456.983154
7895.900582	0.100170	0.272874	1546.735229
7895.901517	0.100360	0.272874	1640.571899
7895.902428	0.102601	0.272874	1734.041748
7895.903328	0.102700	0.272874	1826.471924
7895.904251	0.100287	0.272874	1919.036743
7895.905155	0.099705	0.272874	2009.169678
7895.906053	0.102462	0.272874	2101.180664
7895.906945	0.102891	0.272874	2192.958984
7895.907888	0.099426	0.272874	2286.718018
7895.908780	0.100100	0.272874	2376.007324
7896.889800	0.732916	0.264878	318.085663
7896.890750	0.254912	0.264878	560.252197
7896.891668	0.249071	0.264878	788.899414
7896.892579	0.241282	0.264878	1008.707092
7896.893482	0.493378	0.264878	1454.227051
7896.894429	0.099261	0.264878	1548.227661
7896.895329	0.101243	0.264878	1639.346069
7896.896229	0.102462	0.264878	1731.562012
7896.897131	0.101792	0.264878	1823.378418
7896.898048	0.100060	0.264878	1915.133301
7896.898951	0.101433	0.264878	2006.727417
7896.899854	0.102601	0.264878	2099.376465
7896.900786	0.100027	0.264878	2192.601562
7896.901692	0.099814	0.264878	2283.033447
7896.902594	0.101920	0.264878	2374.965332
7897.930182	0.713961	0.273144	309.859161
7897.931128	0.255267	0.273144	551.342041
7897.932057	0.249254	0.273144	782.899170
7897.932968	0.241571	0.273144	1002.970398
7897.933871	0.496970	0.273144	1451.734497
7897.934819	0.099573	0.273144	1546.129517
7897.935715	0.102502	0.273144	1637.971680
7897.936604	0.103044	0.273144	1729.578125
7897.937509	0.101675	0.273144	1821.593872
7897.938427	0.100459	0.273144	1913.815186
7897.939335	0.101711	0.273144	2006.169189
7897.940228	0.101836	0.273144	2097.108643
7897.941167	0.099423	0.273144	2190.466553
7897.942080	0.100389	0.273144	2282.122070
7897.942979	0.102155	0.273144	2373.958984
7898.928608	0.687433	0.266377	314.156799
7898.929505	0.255363	0.266377	543.216980
7898.930450	0.249518	0.266377	779.011353
7898.931369	0.241637	0.266377	1001.075684
7898.932284	0.485761	0.266377	1445.546509
7898.933178	0.102107	0.266377	1536.830078
7898.934153	0.100430	0.266377	1634.749023
7898.935057	0.100836	0.266377	1725.904907
7898.935960	0.103293	0.266377	1819.178955
7898.936846	0.101224	0.266377	1908.863770
7898.937792	0.099928	0.266377	2003.395630
7898.938703	0.101415	0.266377	2095.784424
7898.939593	0.101144	0.266377	2185.802490
7898.940535	0.099895	0.266377	2279.903564
7898.941441	0.099152	0.266377	2369.734863
7899.963851	0.702686	0.278973	309.884308
7899.964830	0.255872	0.278973	560.382568
7899.965736	0.248947	0.278973	785.928101
7899.966635	0.241597	0.278973	1003.123535
7899.967597	0.495513	0.278973	1479.806763
7899.968511	0.100389	0.278973	1571.562622
7899.969411	0.102689	0.278973	1663.982910
7899.970305	0.102448	0.278973	1755.571045
7899.971249	0.100166	0.278973	1850.127808
7899.972141	0.101279	0.278973	1940.468994
7899.973066	0.101455	0.278973	2034.314941
7899.973960	0.100016	0.278973	2123.729248
7899.974902	0.100338	0.278973	2218.247803
7899.975807	0.101938	0.278973	2310.502197
7899.976697	0.101931	0.278973	2401.220947
7900.968906	0.720102	0.264596	314.684784
7900.969805	0.255209	0.264596	544.117432
7900.970777	0.249448	0.264596	786.581116
7900.971694	0.241575	0.264596	1008.105103
7900.972605	0.494601	0.264596	1458.686401
7900.973531	0.100042	0.264596	1551.324829
7900.974437	0.100107	0.264596	1642.022217
7900.975348	0.102374	0.264596	1735.285156
7900.976239	0.102451	0.264596	1826.569092
7900.977167	0.099767	0.264596	1919.152710
7900.978075	0.100345	0.264596	2010.266357
7900.978979	0.102382	0.264596	2102.819336
7900.979865	0.101818	0.264596	2193.029785
7900.980818	0.099683	0.264596	2288.027344
7900.981725	0.100419	0.264596	2379.107178
7901.995477	0.714924	0.281555	318.856262
7901.996383	0.255022	0.281555	549.906128
7901.997278	0.249664	0.281555	773.355652
7901.998236	0.241490	0.281555	1004.703491
7901.999153	0.494923	0.281555	1458.547974
7902.000047	0.101569	0.281555	1549.350342
7902.000977	0.101016	0.281555	1643.294922
7902.001899	0.102480	0.281555	1737.781860
7902.002800	0.102400	0.281555	1830.044189
7902.003686	0.102488	0.281555	1920.848389
7902.004617	0.099965	0.281555	2013.915405
7902.005524	0.101265	0.281555	2105.762451
7902.006443	0.101649	0.281555	2199.177979
7902.007340	0.100997	0.281555	2289.772461
7902.008300	0.100063	0.281555	2385.833496
7903.008716	0.724926	0.253438	317.517365
7903.009611	0.255198	0.253438	545.919312
7903.010556	0.249672	0.253438	781.859009
7903.011471	0.241696	0.253438	1003.010437
7903.012380	0.496747	0.253438	1454.553345
7903.013319	0.100646	0.253438	1549.059692
7903.014222	0.100276	0.253438	1639.608765
7903.015128	0.102671	0.253438	1732.628662
7903.016017	0.103330	0.253438	1824.489136
7903.016958	0.100302	0.253438	1918.872803
7903.017856	0.100038	0.253438	2008.706787
7903.018757	0.102004	0.253438	2100.612793
7903.019646	0.100638	0.253438	2190.080322
7903.020609	0.099540	0.253438	2285.937256
7903.021521	0.100151	0.253438	2377.275391
7904.024580	0.716499	0.287119	354.667023
7904.025508	0.255557	0.287119	591.823608
7904.026439	0.248650	0.287119	823.316650
7904.027337	0.241472	0.287119	1040.158691
7904.028315	0.478916	0.287119	1508.538574
7904.029212	0.101228	0.287119	1599.340088
7904.030128	0.101565	0.287119	1692.373535
7904.031024	0.102649	0.287119	1784.346924
7904.031983	0.102444	0.287119	1882.590576
7904.032901	0.102052	0.287119	1976.274292
7904.033799	0.101466	0.287119	2067.390869
7904.034745	0.101279	0.287119	2163.201172
7904.035655	0.101312	0.287119	2255.395264
7904.036577	0.100532	0.287119	2348.085937
7904.037468	0.101071	0.287119	2438.139893
7905.049031	0.728265	0.258654	316.067169
7905.049976	0.254659	0.258654	556.720337
7905.050902	0.248738	0.258654	787.051514
7905.051810	0.241406	0.258654	1006.248413
7905.052712	0.490389	0.258654	1448.579590
7905.053668	0.099371	0.258654	1543.578613
7905.054575	0.100510	0.258654	1634.741455
7905.055472	0.101649	0.258654	1725.920776
7905.056395	0.100536	0.258654	1818.715454
7905.057314	0.099825	0.258654	1910.455078
7905.058224	0.100803	0.258654	2002.186035
7905.059125	0.100880	0.258654	2093.079102
7905.060056	0.100118	0.258654	2186.289307
7905.060972	0.099657	0.258654	2277.575195
7905.061874	0.101583	0.258654	2369.203369
7906.055627	0.726830	0.290305	316.170959
7906.056574	0.255146	0.290305	557.794678
7906.057500	0.249210	0.290305	788.563354
7906.058405	0.241626	0.290305	1007.234863
7906.059307	0.487745	0.290305	1447.181152
7906.060269	0.099313	0.290305	1542.719971
7906.061178	0.101023	0.290305	1634.549805
7906.062075	0.102389	0.290305	1726.392700
7906.063005	0.101411	0.290305	1820.705078
7906.063905	0.099943	0.290305	1910.653442
7906.064826	0.101488	0.290305	2004.123901
7906.065715	0.103224	0.290305	2095.889893
7906.066644	0.099521	0.290305	2188.345459
7906.067550	0.099935	0.290305	2278.886719
7906.068458	0.101902	0.290305	2371.413574
7907.086323	0.718165	0.269160	344.719330
7907.087237	0.255483	0.269160	578.231140
7907.088146	0.249294	0.269160	804.839783
7907.089041	0.241428	0.269160	1020.918091
7907.090018	0.440900	0.269160	1451.677002
7907.090912	0.099862	0.269160	1540.953735
7907.091815	0.102565	0.269160	1633.569702
7907.092706	0.101338	0.269160	1723.861816
7907.093651	0.100093	0.269160	1818.449463
7907.094566	0.101393	0.269160	1911.223877
7907.095461	0.101382	0.269160	2001.960571
7907.096385	0.100129	0.269160	2094.480225
7907.097284	0.099932	0.269160	2184.318848
7907.098184	0.101752	0.269160	2275.895508
7907.099073	0.101763	0.269160	2366.362549
7908.089291	0.709314	0.288657	310.679535
7908.090186	0.255066	0.288657	538.963501
7908.091158	0.249053	0.288657	781.042725
7908.092073	0.241604	0.288657	1002.110413
7908.092972	0.493744	0.288657	1445.986206
7908.093913	0.099705	0.288657	1539.808228
7908.094822	0.101785	0.288657	1632.330444
7908.095735	0.101638	0.288657	1725.126099
7908.096624	0.102374	0.288657	1816.136841
7908.097581	0.100752	0.288657	1912.556396
7908.098476	0.102305	0.288657	2004.119141
7908.099365	0.102638	0.288657	2095.364258
7908.100286	0.101005	0.288657	2188.389648
7908.101208	0.100880	0.288657	2281.401123
7908.102111	0.101294	0.288657	2372.869629
7909.118406	0.719106	0.285535	312.092224
7909.119347	0.255132	0.285535	552.171265
7909.120267	0.249408	0.285535	781.626587
7909.121189	0.241648	0.285535	1004.426025
7909.122101	0.483501	0.285535	1445.378906
7909.123044	0.099104	0.285535	1538.833984
7909.123944	0.100587	0.285535	1629.362427
7909.124842	0.101715	0.285535	1720.702637
7909.125732	0.101096	0.285535	1810.678223
7909.126678	0.099840	0.285535	1905.126953
7909.127578	0.100360	0.285535	1995.451050
7909.128474	0.102012	0.285535	2086.853516
7909.129409	0.100613	0.285535	2180.926514
7909.130317	0.099712	0.285535	2271.464844
7909.131215	0.101283	0.285535	2362.416992
7910.127575	0.700964	0.285886	314.732971
7910.128478	0.255297	0.285886	545.265869
7910.129375	0.249913	0.285886	769.438110
7910.130345	0.241597	0.285886	1003.786865
7910.131268	0.494198	0.285886	1459.931641
7910.132163	0.102228	0.285886	1551.425537
7910.133101	0.100627	0.285886	1645.814087
7910.134008	0.100953	0.285886	1737.378784
7910.134903	0.102374	0.285886	1829.003784
7910.135794	0.101169	0.285886	1919.145752
7910.136734	0.099701	0.285886	2012.864624
7910.137642	0.101880	0.285886	2105.371582
7910.138544	0.100920	0.285886	2196.401855
7910.139430	0.100679	0.285886	2285.603271
7910.140390	0.099423	0.285886	2381.049072
7911.146964	0.682262	0.296646	302.242035
7911.147871	0.255454	0.296646	533.938904
7911.148774	0.249961	0.296646	759.653625
7911.149741	0.241670	0.296646	993.348450
7911.150669	0.495824	0.296646	1453.473145
7911.151566	0.100708	0.296646	1543.808228
7911.152498	0.100928	0.296646	1637.872925
7911.153406	0.100085	0.296646	1728.750488
7911.154316	0.101459	0.296646	1821.077881
7911.155208	0.102048	0.296646	1912.104980
7911.156138	0.100195	0.296646	2005.286621
7911.157044	0.099866	0.296646	2095.764893
7911.157948	0.100514	0.296646	2186.629395
7911.158839	0.101506	0.296646	2277.071533
7911.159786	0.099309	0.296646	2371.117187
7912.173058	0.676652	0.276830	334.265900
7912.173980	0.255179	0.276830	569.541321
7912.174887	0.248500	0.276830	794.930603
7912.175780	0.241234	0.276830	1010.352661
7912.176751	0.483373	0.276830	1479.707642
7912.177651	0.102067	0.276830	1571.567627
7912.178539	0.102565	0.276830	1662.645020
7912.179468	0.101364	0.276830	1756.811768
7912.180396	0.100587	0.276830	1850.156616
7912.181301	0.101968	0.276830	1942.437500
7912.182192	0.102334	0.276830	2033.617065
7912.183122	0.100115	0.276830	2126.723877
7912.184046	0.101279	0.276830	2220.305908
7912.184946	0.100723	0.276830	2310.956299
7912.185836	0.101016	0.276830	2400.860107
7913.176059	0.581334	0.298245	278.459106
7913.176981	0.255011	0.298245	513.579224
7913.177889	0.248665	0.298245	739.366638
7913.178780	0.241223	0.298245	954.296448
7913.179721	0.470035	0.298245	1396.599731
7913.180623	0.100503	0.298245	1487.253418
7913.181519	0.103118	0.298245	1579.646851
7913.182448	0.100594	0.298245	1673.099121
7913.183351	0.100203	0.298245	1763.582153
7913.184254	0.101565	0.298245	1855.295288
7913.185146	0.101254	0.298245	1945.613525
7913.186093	0.099576	0.298245	2039.912354
7913.186991	0.099994	0.298245	2129.706787
7913.187889	0.102338	0.298245	2221.605957
7913.188775	0.100214	0.298245	2310.395264
7914.215928	0.583356	0.271976	280.594116
7914.216851	0.255615	0.271976	516.526978
7914.217759	0.249064	0.271976	742.676880
7914.218652	0.241622	0.271976	958.445557
7914.219621	0.492491	0.271976	1435.669800
7914.220530	0.100199	0.271976	1526.750732
7914.221422	0.102107	0.271976	1617.830078
7914.222370	0.100631	0.271976	1713.228394
7914.223270	0.099745	0.271976	1802.998779
7914.224166	0.101891	0.271976	1894.292969
7914.225057	0.101627	0.271976	1984.842773
7914.225995	0.099906	0.271976	2078.554687
7914.226901	0.100712	0.271976	2169.799561
7914.227803	0.101913	0.271976	2261.724854
7914.228696	0.101484	0.271976	2352.350342
7915.207124	0.701429	0.283058	313.538971
7915.208024	0.255172	0.283058	543.193848
7915.208967	0.249419	0.283058	778.395874
7915.209889	0.241659	0.283058	1001.205383
7915.210802	0.499131	0.283058	1456.911865
7915.211690	0.101440	0.283058	1546.990967
7915.212645	0.100364	0.283058	1642.838379
7915.213553	0.101407	0.283058	1734.916382
7915.214446	0.102257	0.283058	1826.231934
7915.215370	0.100829	0.283058	1919.397827
7915.216289	0.099811	0.283058	2011.123901
7915.217198	0.101858	0.283058	2103.712646
7915.218094	0.101422	0.283058	2194.586914
7915.219023	0.099397	0.283058	2286.926758
7915.219926	0.099316	0.283058	2376.609375
7916.252105	0.721055	0.283300	317.264069
7916.253076	0.255703	0.283300	565.551819
7916.253983	0.249243	0.283300	791.615356
7916.254878	0.241652	0.283300	1007.893555
7916.255834	0.445287	0.283300	1433.587769
7916.256735	0.100078	0.283300	1523.758179
7916.257632	0.102264	0.283300	1615.489380
7916.258524	0.102004	0.283300	1706.477295
7916.259463	0.100247	0.283300	1800.608887
7916.260369	0.101353	0.283300	1892.434326
7916.261267	0.101730	0.283300	1983.787598
7916.262152	0.101056	0.283300	2073.222168
7916.263111	0.099972	0.283300	2169.095215
7916.264010	0.101730	0.283300	2260.550293
7916.264905	0.101631	0.283300	2351.510010
7917.240280	0.678116	0.277769	304.474274
7917.241179	0.255308	0.277769	533.995850
7917.242136	0.249554	0.277769	772.819458
7917.243048	0.241703	0.277769	993.252441
7917.243958	0.493634	0.277769	1442.459351
7917.244841	0.100986	0.277769	1531.630249
7917.245784	0.100474	0.277769	1626.376831
7917.246693	0.101158	0.277769	1718.329834
7917.247593	0.103081	0.277769	1811.102783
7917.248510	0.100649	0.277769	1903.398315
7917.249429	0.099957	0.277769	1995.259033
7917.250335	0.102048	0.277769	2087.714844
7917.251233	0.101711	0.277769	2179.051758
7917.252176	0.099467	0.277769	2272.848633
7917.253078	0.099397	0.277769	2362.504639
7918.285262	0.715997	0.285902	317.902832
7918.286217	0.255630	0.285902	562.029358
7918.287136	0.249119	0.285902	790.969360
7918.288034	0.241725	0.285902	1008.038269
7918.288999	0.477030	0.285902	1468.372192
7918.289908	0.099701	0.285902	1559.000366
7918.290804	0.101744	0.285902	1650.163330
7918.291696	0.101587	0.285902	1740.778809
7918.292649	0.100265	0.285902	1836.331299
7918.293567	0.101459	0.285902	1929.470459
7918.294469	0.102484	0.285902	2021.911133
7918.295358	0.100642	0.285902	2111.381836
7918.296286	0.099950	0.285902	2204.135498
7918.297192	0.103293	0.285902	2297.719482
7918.298082	0.102184	0.285902	2388.663086
7919.278612	0.649098	0.283960	333.636292
7919.279532	0.255586	0.283960	568.775391
7919.280437	0.248599	0.283960	793.757141
7919.281337	0.241622	0.283960	1011.217224
7919.282296	0.486775	0.283960	1478.034302
7919.283207	0.100166	0.283960	1569.285522
7919.284101	0.102422	0.283960	1660.850708
7919.285027	0.100774	0.283960	1754.167358
7919.285932	0.099990	0.283960	1844.658569
7919.286839	0.101605	0.283960	1936.814453
7919.287733	0.102070	0.283960	2028.065308
7919.288671	0.099419	0.283960	2121.320312
7919.289575	0.099727	0.283960	2211.473145
7919.290469	0.101770	0.283960	2302.455566
7919.291358	0.101689	0.283960	2392.857422
7920.317905	0.714972	0.291703	316.732544
7920.318803	0.255319	0.291703	546.008667
7920.319788	0.249152	0.291703	791.422974
7920.320698	0.241655	0.291703	1011.329285
7920.321600	0.492858	0.291703	1455.886841
7920.322543	0.100020	0.291703	1550.205322
7920.323444	0.101946	0.291703	1642.058472
7920.324365	0.101565	0.291703	1735.599731
7920.325254	0.102576	0.291703	1826.789551
7920.326193	0.101078	0.291703	1921.701660
7920.327100	0.101565	0.291703	2013.821045
7920.328024	0.101993	0.291703	2108.062988
7920.328912	0.100613	0.291703	2197.407227
7920.329857	0.100554	0.291703	2292.430908
7920.330765	0.102166	0.291703	2385.197266
7921.319897	0.672997	0.278965	305.540558
7921.320796	0.254758	0.278965	534.568237
7921.321741	0.248848	0.278965	769.729248
7921.322658	0.241392	0.278965	991.085327
7921.323575	0.486515	0.278965	1437.219482
7921.324461	0.100737	0.278965	1526.472778
7921.325416	0.100312	0.278965	1622.271240
7921.326322	0.100862	0.278965	1713.652100
7921.327219	0.103671	0.278965	1806.644653
7921.328156	0.101122	0.278965	1901.395752
7921.329065	0.099998	0.278965	1992.293579
7921.329978	0.101385	0.278965	2084.858643
7921.330879	0.102253	0.278965	2176.989014
7921.331818	0.099474	0.278965	2270.395020
7921.332726	0.099521	0.278965	2360.760498
7922.350555	0.721128	0.290418	325.228699
7922.351455	0.255352	0.290418	555.045105
7922.352355	0.249752	0.290418	779.822083
7922.353305	0.241483	0.290418	1009.231079
7922.354237	0.499783	0.290418	1475.028564
7922.355137	0.101635	0.290418	1566.499634
7922.356070	0.101704	0.290418	1661.389526
7922.356994	0.102034	0.290418	1755.668701
7922.357912	0.103070	0.290418	1850.286987
7922.358803	0.102437	0.290418	1941.557983
7922.359750	0.102338	0.290418	2038.471680
7922.360671	0.101990	0.290418	2132.404297
7922.361583	0.101510	0.290418	2224.981445
7922.362482	0.101605	0.290418	2316.324463
7922.363413	0.102213	0.290418	2411.484863
7923.359702	0.687345	0.268588	308.617889
7923.360601	0.255531	0.268588	538.340210
7923.361547	0.249624	0.268588	774.484558
7923.362467	0.241659	0.268588	996.810791
7923.363381	0.496186	0.268588	1450.325195
7923.364271	0.100690	0.268588	1539.939087
7923.365229	0.100155	0.268588	1635.887573
7923.366134	0.101016	0.268588	1727.306763
7923.367026	0.102883	0.268588	1819.078613
7923.367952	0.101063	0.268588	1912.663208
7923.368861	0.099760	0.268588	2003.344604
7923.369763	0.101151	0.268588	2094.583008
7923.370659	0.101832	0.268588	2185.824707
7923.371587	0.099807	0.268588	2278.445801
7923.372492	0.099895	0.268588	2368.850830
7924.383181	0.719883	0.281140	318.188202
7924.384073	0.255165	0.281140	545.795227
7924.385042	0.249397	0.281140	787.460876
7924.385961	0.241501	0.281140	1009.400757
7924.386871	0.498772	0.281140	1463.283203
7924.387790	0.100331	0.281140	1555.487183
7924.388718	0.100283	0.281140	1648.550049
7924.389637	0.102202	0.281140	1742.473877
7924.390535	0.101986	0.281140	1834.057373
7924.391473	0.100437	0.281140	1928.267334
7924.392371	0.100118	0.281140	2018.173706
7924.393271	0.101880	0.281140	2109.865723
7924.394158	0.101254	0.281140	2199.677734
7924.395091	0.099620	0.281140	2292.623535
7924.396000	0.100115	0.281140	2383.627930
7925.397453	0.714994	0.260584	313.167328
7925.398417	0.255626	0.260584	559.591003
7925.399326	0.248958	0.260584	785.893372
7925.400232	0.241860	0.260584	1005.018860
7925.401184	0.490862	0.260584	1472.319336
7925.402087	0.099280	0.260584	1561.968994
7925.402988	0.102458	0.260584	1654.284058
7925.403876	0.102316	0.260584	1745.140381
7925.404833	0.100071	0.260584	1840.908081
7925.405729	0.100411	0.260584	1930.876709
7925.406628	0.102089	0.260584	2022.654419
7925.407517	0.101129	0.260584	2112.558350
7925.408451	0.099785	0.260584	2205.757568
7925.409350	0.100291	0.260584	2295.918701
7925.410246	0.101327	0.260584	2386.707520
7926.415841	0.684998	0.281140	309.618896
7926.416740	0.255095	0.281140	538.949463
7926.417634	0.249906	0.281140	762.365417
7926.418572	0.241783	0.281140	989.158325
7926.419504	0.445433	0.281140	1404.302246
7926.420423	0.100690	0.281140	1496.836060
7926.421310	0.101334	0.281140	1586.719482
7926.422255	0.100587	0.281140	1681.774292
7926.423162	0.102708	0.281140	1774.930054
7926.424082	0.102682	0.281140	1869.397339
7926.424974	0.101711	0.281140	1960.123901
7926.425922	0.101287	0.281140	2056.143555
7926.426822	0.101869	0.281140	2147.825684
7926.427707	0.102136	0.281140	2238.216309
7926.428626	0.100408	0.281140	2330.490967
7927.433170	0.700737	0.254707	309.725891
7927.434066	0.255289	0.254707	538.465088
7927.435045	0.249305	0.254707	782.535095
7927.435953	0.241608	0.254707	1001.914856
7927.436866	0.492070	0.254707	1451.175049
7927.437799	0.099840	0.254707	1544.325806
7927.438706	0.100613	0.254707	1635.581543
7927.439606	0.102469	0.254707	1727.804077
7927.440495	0.102660	0.254707	1819.068726
7927.441452	0.100074	0.254707	1914.839966
7927.442356	0.100675	0.254707	2005.850220
7927.443252	0.102144	0.254707	2097.370850
7927.444180	0.100217	0.254707	2190.372559
7927.445086	0.099646	0.254707	2280.651855
7927.445983	0.101477	0.254707	2371.676758
7928.449504	0.715887	0.283972	327.160553
7928.450446	0.255677	0.283972	568.008728
7928.451341	0.249609	0.283972	791.409119
7928.452303	0.241692	0.283972	1023.916748
7928.453205	0.485039	0.283972	1461.421997
7928.454096	0.100902	0.283972	1551.325806
7928.455041	0.101005	0.283972	1646.775146
7928.455958	0.101898	0.283972	1740.215820
7928.456863	0.101829	0.283972	1832.370728
7928.457758	0.101964	0.283972	1923.628662
7928.458711	0.100422	0.283972	2019.331177
7928.459613	0.101917	0.283972	2111.259766
7928.460533	0.101986	0.283972	2205.086914
7928.461424	0.101016	0.283972	2295.091797
7928.462380	0.100404	0.283972	2391.078125
7929.467878	0.654390	0.263259	298.401672
7929.468795	0.255549	0.263259	532.740356
7929.469698	0.249745	0.263259	758.260010
7929.470632	0.241652	0.263259	983.962646
7929.471568	0.478246	0.263259	1431.600708
7929.472467	0.100752	0.263259	1522.176758
7929.473363	0.102565	0.263259	1614.074707
7929.474302	0.100701	0.263259	1708.632690
7929.475203	0.100302	0.263259	1799.004395
7929.476104	0.102920	0.263259	1891.735229
7929.476991	0.103037	0.263259	1983.129150
7929.477935	0.099771	0.263259	2077.312500
7929.478842	0.100159	0.263259	2168.156494
7929.479738	0.101649	0.263259	2259.234131
7929.480666	0.100693	0.263259	2352.677490
7930.485214	0.662747	0.289745	296.247742
7930.486131	0.254901	0.289745	529.992065
7930.487026	0.249203	0.289745	753.028625
7930.487987	0.241351	0.289745	984.967224
7930.488913	0.496663	0.289745	1444.876709
7930.489807	0.101869	0.289745	1535.947510
7930.490695	0.101565	0.289745	1626.137207
7930.491635	0.100323	0.289745	1720.441284
7930.492544	0.101949	0.289745	1813.113281
7930.493436	0.101693	0.289745	1903.823486
7930.494376	0.100448	0.289745	1998.244629
7930.495279	0.100060	0.289745	2088.598633
7930.496200	0.102462	0.289745	2182.966309
7930.497099	0.102642	0.289745	2275.241211
7930.498046	0.099020	0.289745	2369.012939
7931.502542	0.720201	0.268190	316.888641
7931.503436	0.254875	0.268190	544.747314
7931.504398	0.249397	0.268190	784.667175
7931.505316	0.241326	0.268190	1006.204163
7931.506223	0.494623	0.268190	1454.827026
7931.507164	0.100814	0.268190	1549.693237
7931.508079	0.100430	0.268190	1641.586426
7931.508980	0.102122	0.268190	1733.598022
7931.509876	0.102074	0.268190	1825.056274
7931.510809	0.099884	0.268190	1918.248047
7931.511722	0.099789	0.268190	2009.355225
7931.512634	0.101356	0.268190	2101.791992
7931.513525	0.101726	0.268190	2192.429932
7931.514469	0.099218	0.268190	2286.091309
7931.515380	0.100221	0.268190	2377.392578
7932.522456	0.724120	0.290845	325.853943
7932.523348	0.255154	0.290845	553.451172
7932.524293	0.249529	0.290845	789.255920
7932.525209	0.241523	0.290845	1010.491394
7932.526120	0.492565	0.290845	1459.217773
7932.527010	0.101301	0.290845	1549.375854
7932.527963	0.099983	0.290845	1644.659546
7932.528869	0.102484	0.290845	1737.510132
7932.529771	0.101942	0.290845	1829.461914
7932.530660	0.100411	0.290845	1918.727661
7932.531606	0.099741	0.290845	2013.082886
7932.532504	0.101144	0.290845	2103.909912
7932.533392	0.101898	0.290845	2194.395508
7932.534337	0.099771	0.290845	2288.678711
7932.535250	0.100902	0.290845	2380.802246
7933.536200	0.733550	0.270526	318.360626
7933.537142	0.254934	0.270526	558.508545
7933.538051	0.249034	0.270526	784.880798
7933.538958	0.241472	0.270526	1003.896057
7933.539856	0.497212	0.270526	1450.392334
7933.540817	0.099576	0.270526	1546.085205
7933.541718	0.100836	0.270526	1636.938599
7933.542612	0.102653	0.270526	1728.709961
7933.543525	0.101305	0.270526	1821.201416
7933.544454	0.099796	0.270526	1913.911987
7933.545361	0.101195	0.270526	2005.695923
7933.546260	0.102594	0.270526	2097.927979
7933.547181	0.099404	0.270526	2189.479248
7933.548085	0.099554	0.270526	2279.476562
7933.548981	0.101422	0.270526	2370.350830
7934.560254	0.730023	0.295083	356.251282
7934.561171	0.255077	0.295083	590.156799
7934.562078	0.248719	0.295083	815.745361
7934.562969	0.241326	0.295083	1030.766602
7934.563928	0.471738	0.295083	1483.163574
7934.564832	0.100323	0.295083	1573.855957
7934.565739	0.102118	0.295083	1666.476929
7934.566628	0.101711	0.295083	1756.898437
7934.567578	0.099946	0.295083	1851.847412
7934.568484	0.101569	0.295083	1943.868530
7934.569382	0.102418	0.295083	2035.840088
7934.570315	0.100155	0.295083	2129.284668
7934.571210	0.099580	0.295083	2218.408936
7934.572109	0.101184	0.295083	2309.373535
7934.572995	0.101261	0.295083	2399.090820
7935.569351	0.719908	0.276955	311.720337
7935.570304	0.255304	0.276955	555.025024
7935.571211	0.249261	0.276955	781.105225
7935.572120	0.241652	0.276955	1000.766541
7935.573023	0.501680	0.276955	1453.783203
7935.573969	0.099489	0.276955	1547.899414
7935.574877	0.101880	0.276955	1640.406372
7935.575776	0.102792	0.276955	1732.816162
7935.576697	0.100770	0.276955	1825.625610
7935.577605	0.099913	0.276955	1916.346924
7935.578508	0.102078	0.276955	2008.523071
7935.579397	0.102975	0.276955	2100.067627
7935.580341	0.099474	0.276955	2193.970947
7935.581240	0.099576	0.276955	2283.490234
7935.582145	0.101407	0.276955	2375.263916
7936.600550	0.673180	0.295236	304.277313
7936.601460	0.255066	0.295236	536.387329
7936.602367	0.249448	0.295236	762.636841
7936.603304	0.241366	0.295236	988.796753
7936.604229	0.489906	0.295236	1441.959839
7936.605130	0.100781	0.295236	1532.763794
7936.606030	0.102264	0.295236	1624.801758
7936.606979	0.100364	0.295236	1720.046997
7936.607876	0.100763	0.295236	1810.431396
7936.608778	0.101587	0.295236	1902.062744
7936.609668	0.101107	0.295236	1992.048096
7936.610607	0.099598	0.295236	2085.571045
7936.611504	0.101019	0.295236	2176.185303
7936.612398	0.101569	0.295236	2266.987549
7936.613334	0.099976	0.295236	2360.564697
7937.600470	0.706688	0.288122	310.236145
7937.601382	0.255059	0.288122	542.849609
7937.602293	0.249507	0.288122	770.150330
7937.603233	0.241641	0.288122	997.292480
7937.604158	0.496729	0.288122	1456.766357
7937.605049	0.101514	0.288122	1547.215088
7937.605935	0.101920	0.288122	1637.516357
7937.606885	0.100367	0.288122	1732.865356
7937.607779	0.100598	0.288122	1822.800049
7937.608680	0.101733	0.288122	1914.461792
7937.609572	0.101089	0.288122	2004.633057
7937.610525	0.099646	0.288122	2099.595703
7937.611438	0.100203	0.288122	2191.080811
7937.612338	0.101609	0.288122	2282.528809
7937.613274	0.099932	0.288122	2376.064941
7938.638797	0.714683	0.295457	313.745667
7938.639739	0.255190	0.295457	554.135071
7938.640664	0.249126	0.295457	784.576599
7938.641577	0.241593	0.295457	1005.151001
7938.642491	0.477305	0.295457	1441.407471
7938.643448	0.099565	0.295457	1536.691528
7938.644346	0.100426	0.295457	1626.874146
7938.645246	0.103041	0.295457	1719.610840
7938.646133	0.101052	0.295457	1809.244141
7938.647078	0.099587	0.295457	1903.354248
7938.647985	0.100917	0.295457	1994.885742
7938.648877	0.102177	0.295457	2086.027100
7938.649810	0.100422	0.295457	2179.721191
7938.650715	0.099558	0.295457	2269.821289
7938.651620	0.101364	0.295457	2361.555176
7939.629512	0.719462	0.293209	312.246368
7939.630450	0.255004	0.293209	551.439819
7939.631388	0.249108	0.293209	785.102783
7939.632288	0.241663	0.293209	1002.599121
7939.633183	0.488035	0.293209	1439.390137
7939.634124	0.099628	0.293209	1533.139771
7939.635026	0.102664	0.293209	1625.742310
7939.635942	0.101843	0.293209	1719.030762
7939.636837	0.102349	0.293209	1810.632812
7939.637791	0.101389	0.293209	1907.358032
7939.638692	0.101968	0.293209	1999.230957
7939.639583	0.101942	0.293209	2090.061523
7939.640508	0.100745	0.293209	2183.250244
7939.641424	0.100759	0.293209	2275.545654
7939.642316	0.102037	0.293209	2366.562988
7940.676601	0.557512	0.285604	269.835907
7940.677507	0.255703	0.285604	501.502930
7940.678415	0.249635	0.285604	728.171509
7940.679311	0.241681	0.285604	944.717590
7940.680279	0.491331	0.285604	1420.325562
7940.681186	0.101030	0.285604	1511.959961
7940.682080	0.102429	0.285604	1603.531616
7940.683022	0.101049	0.285604	1698.719360
7940.683926	0.100129	0.285604	1789.236328
7940.684827	0.102286	0.285604	1881.396362
7940.685715	0.101667	0.285604	1971.677124
7940.686660	0.099935	0.285604	2066.115967
7940.687560	0.101023	0.285604	2157.036621
7940.688467	0.102744	0.285604	2250.225586
7940.689356	0.100741	0.285604	2339.784424
7941.663738	0.720450	0.292150	350.138916
7941.664649	0.255117	0.292150	582.550659
7941.665576	0.248569	0.292150	812.974426
7941.666477	0.241315	0.292150	1030.398926
7941.667453	0.487954	0.292150	1506.642090
7941.668362	0.100638	0.292150	1598.122437
7941.669293	0.102144	0.292150	1693.218018
7941.670187	0.101920	0.292150	1784.334595
7941.671152	0.101865	0.292150	1882.634521
7941.672040	0.102327	0.292150	1973.500610
7941.672933	0.101957	0.292150	2064.548096
7941.673857	0.100232	0.292150	2157.162354
7941.674768	0.101466	0.292150	2249.597900
7941.675689	0.101393	0.292150	2342.980713
7941.676586	0.101858	0.292150	2434.347168
7942.712828	0.717052	0.277902	349.204315
7942.713749	0.255831	0.277902	584.824951
7942.714656	0.249250	0.277902	810.895142
7942.715551	0.241685	0.277902	1027.202881
7942.716517	0.483915	0.277902	1494.664551
7942.717418	0.100364	0.277902	1585.092285
7942.718314	0.102279	0.277902	1676.734375
7942.719206	0.101202	0.277902	1767.006958
7942.720155	0.100173	0.277902	1862.071411
7942.721064	0.101437	0.277902	1954.277466
7942.721959	0.102861	0.277902	2046.338379
7942.722892	0.100627	0.277902	2140.223877
7942.723796	0.099763	0.277902	2230.409912
7942.724694	0.102360	0.277902	2322.328857
7942.725581	0.100770	0.277902	2411.712158
7943.701463	0.692501	0.291405	310.240570
7943.702358	0.255216	0.291405	538.658936
7943.703253	0.249950	0.291405	762.364136
7943.704227	0.241685	0.291405	997.764893
7943.705141	0.495927	0.291405	1451.041748
7943.706030	0.100660	0.291405	1540.528809
7943.706970	0.100492	0.291405	1634.991211
7943.707885	0.102045	0.291405	1728.362061
7943.708804	0.102187	0.291405	1822.272339
7943.709695	0.101946	0.291405	1913.106079
7943.710648	0.100521	0.291405	2008.902832
7943.711555	0.101459	0.291405	2100.926025
7943.712446	0.101832	0.291405	2191.658691
7943.713358	0.100389	0.291405	2283.213867
7943.714291	0.101093	0.291405	2377.533203
7944.745416	0.728947	0.279030	319.278595
7944.746389	0.255945	0.279030	568.312866
7944.747304	0.249115	0.279030	796.253052
7944.748208	0.241593	0.279030	1014.653137
7944.749149	0.448920	0.279030	1437.086548
7944.750060	0.099536	0.279030	1527.763916
7944.750966	0.102239	0.279030	1620.392212
7944.751857	0.102206	0.279030	1711.457642
7944.752797	0.100382	0.279030	1805.816772
7944.753705	0.100463	0.279030	1897.036865
7944.754605	0.102162	0.279030	1988.982544
7944.755497	0.101807	0.279030	2079.793945
7944.756448	0.099587	0.279030	2174.501465
7944.757362	0.101034	0.279030	2266.846436
7944.758259	0.101451	0.279030	2357.848389
7945.743332	0.659733	0.303880	298.858887
7945.744233	0.255256	0.303880	528.844849
7945.745165	0.249489	0.303880	761.368164
7945.746073	0.241714	0.303880	980.844360
7945.747019	0.494758	0.303880	1448.885742
7945.747913	0.100847	0.303880	1539.043091
7945.748802	0.101561	0.303880	1629.331055
7945.749729	0.100393	0.303880	1722.395386
7945.750639	0.101389	0.303880	1814.659546
7945.751543	0.102052	0.303880	1906.914551
7945.752432	0.101565	0.303880	1997.205811
7945.753372	0.099642	0.303880	2090.869629
7945.754278	0.102096	0.303880	2183.368652
7945.755170	0.101129	0.303880	2273.575928
7945.756082	0.100309	0.303880	2365.057617
7946.773469	0.678274	0.291989	305.901550
7946.774374	0.255249	0.291989	536.901917
7946.775268	0.249877	0.291989	760.291687
7946.776219	0.241721	0.291989	990.168579
7946.777146	0.491927	0.291989	1446.185303
7946.778044	0.101331	0.291989	1537.180176
7946.778972	0.101711	0.291989	1631.568359
7946.779879	0.099906	0.291989	1722.183105
7946.780788	0.101906	0.291989	1814.815186
7946.781684	0.101851	0.291989	1906.073364
7946.782629	0.099840	0.291989	2000.422241
7946.783530	0.099866	0.291989	2090.401367
7946.784430	0.102008	0.291989	2182.208496
7946.785318	0.101415	0.291989	2272.264893
7946.786253	0.099609	0.291989	2365.399658
7947.785158	0.718612	0.302789	311.159027
7947.786123	0.255212	0.302789	557.438965
7947.787045	0.248979	0.302789	786.998047
7947.787954	0.241509	0.302789	1006.529541
7947.788858	0.501533	0.302789	1459.915527
7947.789805	0.099346	0.302789	1553.995850
7947.790693	0.101741	0.302789	1644.341553
7947.791606	0.102334	0.302789	1737.772461
7947.792509	0.100748	0.302789	1828.748169
7947.793457	0.100789	0.302789	1924.295776
7947.794366	0.101517	0.302789	2016.575073
7947.795256	0.101572	0.302789	2106.974365
7947.796181	0.099617	0.302789	2199.119873
7947.797094	0.100737	0.302789	2291.093018
7947.798004	0.101906	0.302789	2383.827148
7948.802034	0.719359	0.301113	343.853668
7948.802960	0.255396	0.301113	580.349915
7948.803868	0.248983	0.301113	806.426636
7948.804770	0.241721	0.301113	1024.459106
7948.805713	0.493945	0.301113	1490.249512
7948.806613	0.099690	0.301113	1579.970459
7948.807517	0.101832	0.301113	1672.026855
7948.808407	0.101635	0.301113	1762.481567
7948.809347	0.099855	0.301113	1856.344971
7948.810255	0.101188	0.301113	1948.223389
7948.811151	0.102345	0.301113	2039.924438
7948.812083	0.101052	0.301113	2134.105225
7948.812997	0.099401	0.301113	2224.957520
7948.813896	0.101949	0.301113	2316.610107
7948.814795	0.102601	0.301113	2408.848633
7949.826005	0.678717	0.291376	298.635529
7949.826930	0.255286	0.291376	534.774780
7949.827834	0.249719	0.291376	760.520996
7949.828777	0.241783	0.291376	988.522827
7949.829694	0.489906	0.291376	1437.766602
7949.830594	0.100642	0.291376	1528.344482
7949.831482	0.102975	0.291376	1619.786133
7949.832423	0.100327	0.291376	1714.193970
7949.833326	0.101184	0.291376	1805.563232
7949.834223	0.102686	0.291376	1897.672119
7949.835116	0.100898	0.291376	1987.774414
7949.836062	0.099727	0.291376	2082.115723
7949.836969	0.101100	0.291376	2173.813232
7949.837867	0.101957	0.291376	2265.370361
7949.838796	0.099976	0.291376	2358.247559
7950.832612	0.687144	0.304259	313.337433
7950.833540	0.255355	0.304259	550.307068
7950.834438	0.249800	0.304259	774.627319
7950.835384	0.241707	0.304259	1003.281738
7950.836315	0.492612	0.304259	1461.903809
7950.837216	0.101613	0.304259	1553.456665
7950.838110	0.101807	0.304259	1644.471802
7950.839068	0.100287	0.304259	1740.546631
7950.839977	0.100514	0.304259	1831.913818
7950.840878	0.101982	0.304259	1923.799927
7950.841787	0.101378	0.304259	2015.952637
7950.842707	0.099375	0.304259	2107.377686
7950.843615	0.100452	0.304259	2198.587891
7950.844505	0.101656	0.304259	2289.062256
7950.845448	0.099360	0.304259	2382.759033
7951.863759	0.714595	0.280653	313.707092
7951.864655	0.255205	0.280653	542.370850
7951.865610	0.249492	0.280653	780.635864
7951.866534	0.241692	0.280653	1003.959167
7951.867448	0.469838	0.280653	1433.390747
7951.868372	0.099811	0.280653	1525.615967
7951.869302	0.100294	0.280653	1618.889526
7951.870205	0.101594	0.280653	1710.629150
7951.871097	0.101858	0.280653	1801.486450
7951.872047	0.100181	0.280653	1896.658081
7951.872953	0.099723	0.280653	1987.007080
7951.873845	0.100514	0.280653	2076.665527
7951.874733	0.100503	0.280653	2165.912109
7951.875665	0.099390	0.280653	2258.543213
7951.876575	0.099906	0.280653	2349.457764
7952.868802	0.718367	0.302893	309.616058
7952.869759	0.255502	0.302893	554.131226
7952.870677	0.249573	0.302893	783.239014
7952.871601	0.241538	0.302893	1006.420227
7952.872512	0.489675	0.302893	1452.514404
7952.873468	0.101909	0.302893	1549.939575
7952.874388	0.101982	0.302893	1643.763428
7952.875277	0.102001	0.302893	1734.442139
7952.876212	0.100254	0.302893	1828.179565
7952.877108	0.102118	0.302893	1919.677246
7952.878034	0.102242	0.302893	2014.353760
7952.878929	0.101462	0.302893	2105.162598
7952.879873	0.100243	0.302893	2199.791992
7952.880779	0.101580	0.302893	2291.822998
7952.881668	0.102968	0.302893	2383.361084
7953.899996	0.659465	0.280991	301.375641
7953.900900	0.255370	0.280991	532.229980
7953.901840	0.249338	0.280991	766.608032
7953.902744	0.241454	0.280991	984.882324
7953.903657	0.497113	0.280991	1438.746582
7953.904544	0.101074	0.280991	1528.399414
7953.905493	0.100228	0.280991	1623.515991
7953.906393	0.101038	0.280991	1714.449829
7953.907288	0.102158	0.280991	1805.881470
7953.908214	0.100594	0.280991	1899.031982
7953.909134	0.099686	0.280991	1990.743408
7953.910048	0.101664	0.280991	2083.664062
7953.910945	0.101777	0.280991	2174.958252
7953.911886	0.099456	0.280991	2268.545898
7953.912787	0.100287	0.280991	2358.904297
7954.906600	0.669243	0.304686	305.174866
7954.907500	0.255106	0.304686	534.770447
7954.908394	0.249888	0.304686	758.170044
7954.909349	0.241414	0.304686	988.720032
7954.910275	0.496919	0.304686	1448.866943
7954.911200	0.100759	0.304686	1542.069336
7954.912086	0.101195	0.304686	1631.728149
7954.913048	0.100789	0.304686	1728.686768
7954.913944	0.102030	0.304686	1820.105713
7954.914834	0.102279	0.304686	1911.134033
7954.915786	0.100331	0.304686	2006.648926
7954.916693	0.101722	0.304686	2098.911133
7954.917608	0.101646	0.304686	2191.916748
7954.918504	0.103260	0.304686	2284.438232
7954.919433	0.100140	0.304686	2377.468750
7955.933645	0.704956	0.284049	309.475708
7955.934539	0.255399	0.284049	537.802551
7955.935502	0.249851	0.284049	778.409119
7955.936414	0.241835	0.284049	998.962402
7955.937323	0.489207	0.284049	1443.651123
7955.938268	0.099613	0.284049	1537.785400
7955.939167	0.100404	0.284049	1628.048584
7955.940066	0.101902	0.284049	1719.658325
7955.940952	0.101331	0.284049	1809.437256
7955.941892	0.099756	0.284049	1903.207764
7955.942807	0.100789	0.284049	1995.429321
7955.943705	0.101697	0.284049	2086.752930
7955.944624	0.100532	0.284049	2179.142090
7955.945542	0.099437	0.284049	2270.425537
7955.946444	0.101254	0.284049	2361.756348
7956.946407	0.665907	0.303405	305.651306
7956.947306	0.255447	0.303405	535.297974
7956.948197	0.250188	0.303405	758.215454
7956.949145	0.241699	0.303405	987.346313
7956.950070	0.485841	0.303405	1436.749268
7956.950990	0.102015	0.303405	1530.603394
7956.951882	0.101722	0.303405	1621.339844
7956.952826	0.102015	0.303405	1717.642334
7956.953730	0.102484	0.303405	1810.287964
7956.954618	0.102755	0.303405	1901.534546
7956.955564	0.100118	0.303405	1996.246582
7956.956483	0.100551	0.303405	2088.652588
7956.957405	0.100829	0.303405	2181.616699
7956.958292	0.102118	0.303405	2272.195312
7956.959234	0.100042	0.303405	2366.434326
7957.966290	0.701349	0.282732	312.801605
7957.967187	0.254733	0.282732	541.296814
7957.968132	0.248965	0.282732	776.568604
7957.969058	0.241366	0.282732	1000.073486
7957.969973	0.489551	0.282732	1448.012451
7957.970858	0.101766	0.282732	1538.075684
7957.971809	0.100265	0.282732	1633.427612
7957.972713	0.100704	0.282732	1724.464355
7957.973605	0.102301	0.282732	1815.716919
7957.974547	0.100851	0.282732	1910.718384
7957.975455	0.099617	0.282732	2001.170410
7957.976358	0.101510	0.282732	2092.833984
7957.977249	0.101748	0.282732	2183.491455
7957.978201	0.099554	0.282732	2278.267334
7957.979104	0.100466	0.282732	2368.988525
7958.984136	0.719601	0.299208	315.904755
7958.985027	0.255275	0.299208	543.354492
7958.986014	0.249562	0.299208	789.671997
7958.986916	0.241611	0.299208	1007.605408
7958.987817	0.494916	0.299208	1453.524536
7958.988756	0.099697	0.299208	1547.140259
7958.989661	0.101686	0.299208	1639.165894
7958.990579	0.102136	0.299208	1732.927002
7958.991473	0.101730	0.299208	1823.873413
7958.992426	0.101202	0.299208	1920.319336
7958.993327	0.101514	0.299208	2011.783203
7958.994247	0.102469	0.299208	2106.055176
7958.995134	0.100759	0.299208	2195.428711
7958.996085	0.100876	0.299208	2291.362305
7958.996976	0.101115	0.299208	2381.455322
7959.998932	0.686807	0.283582	306.315765
7959.999834	0.255282	0.283582	536.580078
7960.000729	0.249844	0.283582	760.190247
7960.001704	0.241692	0.283582	995.839844
7960.002622	0.492275	0.283582	1447.748657
7960.003516	0.101957	0.283582	1538.898071
7960.004462	0.100518	0.283582	1633.987671
7960.005363	0.099943	0.283582	1724.036011
7960.006261	0.101818	0.283582	1815.468262
7960.007146	0.101704	0.283582	1905.476440
7960.008081	0.099785	0.283582	1998.775513
7960.008985	0.099778	0.283582	2088.974609
7960.009890	0.101210	0.283582	2180.569336
7960.010782	0.101162	0.283582	2270.805908
7960.011731	0.099554	0.283582	2365.282959
7961.021388	0.729196	0.294833	321.575226
7961.022346	0.255341	0.294833	566.191528
7961.023263	0.248859	0.294833	794.394897
7961.024162	0.241454	0.294833	1011.461914
7961.025125	0.462217	0.294833	1456.576660
7961.026033	0.100605	0.294833	1547.926392
7961.026932	0.102642	0.294833	1640.201172
7961.027824	0.102561	0.294833	1731.685669
7961.028769	0.100675	0.294833	1826.823608
7961.029672	0.101477	0.294833	1918.457397
7961.030586	0.102469	0.294833	2012.114502
7961.031485	0.100928	0.294833	2102.848633
7961.032435	0.100994	0.294833	2198.792480
7961.033334	0.101331	0.294833	2289.888672
7961.034225	0.102979	0.294833	2381.642578
7962.032601	0.687466	0.283368	310.047089
7962.033508	0.255146	0.283368	541.464966
7962.034460	0.248976	0.283368	778.489990
7962.035371	0.241494	0.283368	998.491150
7962.036290	0.495066	0.283368	1453.456787
7962.037178	0.100294	0.283368	1542.518066
7962.038129	0.100170	0.283368	1637.779419
7962.039038	0.102048	0.283368	1730.541382
7962.039934	0.102627	0.283368	1822.495117
7962.040866	0.100990	0.283368	1916.617798
7962.041771	0.099840	0.283368	2006.973022
7962.042675	0.102096	0.283368	2099.267822
7962.043564	0.101125	0.283368	2189.168457
7962.044518	0.099771	0.283368	2284.349609
7962.045424	0.100767	0.283368	2375.644043
7963.057095	0.706011	0.290982	307.820679
7963.057991	0.255256	0.290982	536.530396
7963.058969	0.249181	0.290982	780.229309
7963.059872	0.241626	0.290982	998.417603
7963.060769	0.496172	0.290982	1443.483765
7963.061697	0.099877	0.290982	1536.169312
7963.062610	0.102656	0.290982	1629.894409
7963.063524	0.102594	0.290982	1723.665283
7963.064413	0.102162	0.290982	1814.487183
7963.065364	0.100573	0.290982	1910.131592
7963.066258	0.101635	0.290982	2000.992920
7963.067175	0.101276	0.290982	2093.862793
7963.068071	0.101166	0.290982	2184.507324
7963.069023	0.101561	0.290982	2281.193604
7963.069921	0.100935	0.290982	2371.833252
7964.066763	0.718938	0.275356	317.051666
7964.067746	0.255568	0.275356	568.274658
7964.068667	0.248613	0.275356	797.247498
7964.069565	0.241622	0.275356	1014.224304
7964.070505	0.426680	0.275356	1415.303223
7964.071412	0.099324	0.275356	1505.389893
7964.072324	0.101957	0.275356	1598.374512
7964.073219	0.102382	0.275356	1690.006104
7964.074154	0.100020	0.275356	1783.524414
7964.075066	0.100375	0.275356	1875.066162
7964.075971	0.101133	0.275356	1966.591309
7964.076857	0.101543	0.275356	2056.558350
7964.077802	0.099719	0.275356	2150.792969
7964.078710	0.100540	0.275356	2242.082764
7964.079604	0.102286	0.275356	2333.526855
7965.092318	0.662889	0.287546	302.940460
7965.093210	0.255062	0.287546	530.455994
7965.094182	0.248796	0.287546	772.286133
7965.095095	0.241315	0.287546	992.606445
7965.096008	0.492114	0.287546	1441.906738
7965.096892	0.100796	0.287546	1531.010254
7965.097841	0.100364	0.287546	1626.255493
7965.098741	0.101931	0.287546	1717.993530
7965.099637	0.102173	0.287546	1809.540405
7965.100568	0.100668	0.287546	1903.262085
7965.101474	0.099902	0.287546	1993.773560
7965.102380	0.101188	0.287546	2085.449707
7965.103269	0.102184	0.287546	2176.291260
7965.104214	0.099141	0.287546	2269.979248
7965.105115	0.099620	0.287546	2359.737305
7966.103503	0.705245	0.270478	311.718445
7966.104487	0.255319	0.270478	562.951965
7966.105401	0.248229	0.270478	789.833008
7966.106299	0.241443	0.270478	1006.648682
7966.107258	0.477422	0.270478	1464.496338
7966.108162	0.099606	0.270478	1554.539917
7966.109055	0.102839	0.270478	1646.375488
7966.109946	0.102012	0.270478	1737.267944
7966.110884	0.100291	0.270478	1831.340454
7966.111787	0.100767	0.270478	1922.332764
7966.112685	0.102257	0.270478	2014.159668
7966.113602	0.100514	0.270478	2106.330811
7966.114521	0.099822	0.270478	2198.067139
7966.115426	0.102195	0.270478	2290.553467
7966.116316	0.102290	0.270478	2381.591553
7967.125455	0.719524	0.293910	318.029572
7967.126348	0.255344	0.293910	546.052002
7967.127305	0.249551	0.293910	784.872070
7967.128230	0.241747	0.293910	1008.487915
7967.129150	0.501504	0.293910	1469.871460
7967.130040	0.101356	0.293910	1560.078491
7967.130997	0.100298	0.293910	1656.063477
7967.131899	0.101686	0.293910	1747.784058
7967.132796	0.101818	0.293910	1839.114502
7967.133747	0.100481	0.293910	1934.671875
7967.134645	0.099631	0.293910	2024.140869
7967.135549	0.101814	0.293910	2116.180664
7967.136436	0.101400	0.293910	2206.122559
7967.137370	0.099254	0.293910	2298.825928
7967.138273	0.099840	0.293910	2388.981445
7968.139721	0.722014	0.270941	315.520172
7968.140620	0.254843	0.270941	544.623596
7968.141577	0.248881	0.270941	782.802368
7968.142494	0.241370	0.270941	1004.138306
7968.143393	0.502917	0.270941	1456.261108
7968.144315	0.100287	0.270941	1548.725586
7968.145248	0.102162	0.270941	1644.042603
7968.146151	0.103898	0.270941	1737.862183
7968.147043	0.103704	0.270941	1830.365845
7968.147986	0.100104	0.270941	1924.763672
7968.148886	0.101429	0.270941	2016.050171
7968.149795	0.102389	0.270941	2109.121582
7968.150694	0.101019	0.270941	2199.937988
7968.151638	0.099979	0.270941	2294.318359
7968.152539	0.102535	0.270941	2386.702637
7969.158606	0.724596	0.292484	320.271423
7969.159499	0.254883	0.292484	547.881775
7969.160467	0.249254	0.292484	789.159790
7969.161380	0.241630	0.292484	1009.767639
7969.162291	0.492667	0.292484	1458.587524
7969.163174	0.100693	0.292484	1547.499756
7969.164130	0.100378	0.292484	1643.461548
7969.165038	0.102151	0.292484	1736.214600
7969.165927	0.102601	0.292484	1827.427124
7969.166860	0.100342	0.292484	1921.046021
7969.167775	0.099606	0.292484	2012.185303
7969.168673	0.102587	0.292484	2104.308105
7969.169564	0.101418	0.292484	2194.671875
7969.170520	0.099207	0.292484	2289.513428
7969.171413	0.100686	0.292484	2379.426025
7970.177498	0.701353	0.273076	312.803223
7970.178430	0.255337	0.273076	550.777222
7970.179328	0.249587	0.273076	774.906738
7970.180267	0.241633	0.273076	1001.800415
7970.181189	0.492748	0.273076	1456.113892
7970.182087	0.100986	0.273076	1546.799561
7970.182976	0.101188	0.273076	1636.755493
7970.183928	0.100188	0.273076	1732.134521
7970.184835	0.101008	0.273076	1823.749023
7970.185728	0.102437	0.273076	1915.224854
7970.186655	0.100605	0.273076	2008.486084
7970.187557	0.099404	0.273076	2098.148682
7970.188455	0.100745	0.273076	2188.617432
7970.189345	0.101016	0.273076	2278.521240
7970.190288	0.099258	0.273076	2372.121338
7971.191253	0.687158	0.296428	305.098267
7971.192156	0.255106	0.296428	535.459167
7971.193077	0.249672	0.296428	765.406738
7971.194018	0.241399	0.296428	992.563110
7971.194936	0.490005	0.296428	1442.387573
7971.195824	0.102026	0.296428	1532.986938
7971.196766	0.100583	0.296428	1627.736572
7971.197669	0.100415	0.296428	1718.411377
7971.198564	0.102568	0.296428	1810.210083
7971.199457	0.101382	0.296428	1900.744019
7971.200389	0.099609	0.296428	1993.579956
7971.201300	0.100477	0.296428	2085.114746
7971.202201	0.101067	0.296428	2176.176025
7971.203122	0.099650	0.296428	2267.953369
7971.204029	0.099287	0.296428	2358.006836
7972.215749	0.723538	0.276693	314.015289
7972.216713	0.255520	0.276693	560.336548
7972.217627	0.249181	0.276693	788.087891
7972.218531	0.241560	0.276693	1006.458191
7972.219434	0.481934	0.276693	1441.644165
7972.220381	0.099236	0.276693	1535.620483
7972.221287	0.101389	0.276693	1627.479004
7972.222179	0.102554	0.276693	1718.956909
7972.223122	0.100715	0.276693	1813.931519
7972.224022	0.099950	0.276693	1903.886475
7972.224918	0.102740	0.276693	1995.941895
7972.225809	0.101624	0.276693	2086.488525
7972.226736	0.099895	0.276693	2179.091309
7972.227640	0.100159	0.276693	2269.634766
7972.228547	0.102356	0.276693	2362.471680
7973.223912	0.609635	0.296078	282.870636
7973.224827	0.255670	0.296078	516.808838
7973.225754	0.249276	0.296078	747.887817
7973.226651	0.241703	0.296078	964.695312
7973.227602	0.489913	0.296078	1430.602905
7973.228502	0.101331	0.296078	1521.800415
7973.229390	0.102488	0.296078	1612.809570
7973.230327	0.100569	0.296078	1707.042603
7973.231242	0.101265	0.296078	1799.699707
7973.232144	0.102433	0.296078	1892.094116
7973.233039	0.101056	0.296078	1982.539185
7973.233992	0.099609	0.296078	2077.466797
7973.234898	0.101085	0.296078	2169.050049
7973.235790	0.101814	0.296078	2259.868164
7973.236710	0.100375	0.296078	2352.212891
7974.253539	0.645678	0.276875	295.074615
7974.254465	0.254930	0.276875	531.140137
7974.255375	0.248936	0.276875	757.671509
7974.256317	0.241326	0.276875	985.000305
7974.257243	0.490540	0.276875	1439.239990
7974.258135	0.101342	0.276875	1529.636719
7974.259025	0.102286	0.276875	1620.671631
7974.259984	0.100375	0.276875	1716.931030
7974.260881	0.100818	0.276875	1807.364624
7974.261779	0.102418	0.276875	1899.336182
7974.262663	0.101301	0.276875	1988.886475
7974.263609	0.099639	0.276875	2083.144531
7974.264521	0.100671	0.276875	2174.956787
7974.265416	0.102667	0.276875	2266.843994
7974.266348	0.100122	0.276875	2360.157715
7975.257557	0.692234	0.297036	309.428528
7975.258463	0.255319	0.297036	540.747192
7975.259361	0.249976	0.297036	765.225281
7975.260331	0.241747	0.297036	999.719727
7975.261248	0.469805	0.297036	1430.530640
7975.262145	0.101737	0.297036	1521.788818
7975.263040	0.101415	0.297036	1612.555054
7975.263973	0.100594	0.297036	1706.409668
7975.264869	0.101986	0.297036	1797.789185
7975.265763	0.102275	0.297036	1889.223389
7975.266696	0.100675	0.297036	1983.153198
7975.267610	0.100159	0.297036	2074.698242
7975.268514	0.101788	0.297036	2166.714844
7975.269406	0.101005	0.297036	2256.811035
7975.270348	0.099236	0.297036	2350.291260
7976.289261	0.720934	0.280476	341.001709
7976.290200	0.255560	0.280476	580.972839
7976.291116	0.248610	0.280476	808.699219
7976.292023	0.241260	0.280476	1027.521851
7976.292981	0.487496	0.280476	1494.543335
7976.293880	0.099943	0.280476	1584.391724
7976.294789	0.103070	0.280476	1678.082397
7976.295679	0.101792	0.280476	1768.677246
7976.296625	0.099987	0.280476	1863.264526
7976.297533	0.100803	0.280476	1954.793823
7976.298424	0.102729	0.280476	2046.325806
7976.299371	0.100192	0.280476	2141.207275
7976.300266	0.099221	0.280476	2230.010254
7976.301159	0.101558	0.280476	2320.701172
7976.302048	0.102499	0.280476	2411.822510
7977.293802	0.674169	0.295340	310.791779
7977.294713	0.255344	0.295340	543.410400
7977.295607	0.249628	0.295340	766.577576
7977.296572	0.241718	0.295340	999.834961
7977.297494	0.469354	0.295340	1432.579590
7977.298402	0.101404	0.295340	1524.654297
7977.299292	0.102056	0.295340	1615.483887
7977.300249	0.100151	0.295340	1711.328735
7977.301154	0.101558	0.295340	1803.238403
7977.302046	0.102645	0.295340	1894.797974
7977.302968	0.100565	0.295340	1987.519043
7977.303878	0.100020	0.295340	2078.536865
7977.304780	0.101942	0.295340	2170.488770
7977.305670	0.102162	0.295340	2261.412842
7977.306617	0.100151	0.295340	2356.256104
7978.321360	0.692417	0.291920	304.663452
7978.322255	0.255432	0.291920	533.275208
7978.323207	0.249862	0.291920	771.143860
7978.324131	0.241688	0.291920	994.463745
7978.325031	0.494626	0.291920	1439.627563
7978.325982	0.100096	0.291920	1534.819336
7978.326883	0.100177	0.291920	1625.078857
7978.327786	0.103044	0.291920	1718.127930
7978.328677	0.102008	0.291920	1809.017090
7978.329624	0.100100	0.291920	1903.811890
7978.330531	0.100349	0.291920	1994.828491
7978.331433	0.101722	0.291920	2086.582031
7978.332335	0.100389	0.291920	2177.133301
7978.333260	0.099177	0.291920	2268.872314
7978.334174	0.101246	0.291920	2361.411377
7979.333604	0.651343	0.293862	295.709595
7979.334517	0.255315	0.293862	528.812134
7979.335411	0.249719	0.293862	752.061157
7979.336360	0.241432	0.293862	981.180054
7979.337286	0.484200	0.293862	1429.549683
7979.338184	0.101927	0.293862	1521.080566
7979.339075	0.101653	0.293862	1611.653198
7979.340015	0.100100	0.293862	1705.747314
7979.340916	0.102949	0.293862	1798.504517
7979.341806	0.101726	0.293862	1889.040771
7979.342739	0.099939	0.293862	1982.283813
7979.343636	0.100214	0.293862	2072.175537
7979.344543	0.102865	0.293862	2165.474121
7979.345432	0.101309	0.293862	2255.537354
7979.346370	0.099474	0.293862	2348.843750
7980.351434	0.714518	0.301254	312.958801
7980.352384	0.255505	0.301254	555.688904
7980.353303	0.249360	0.301254	784.851074
7980.354212	0.241732	0.301254	1004.585632
7980.355112	0.497186	0.301254	1452.053345
7980.356063	0.099467	0.301254	1546.645996
7980.356963	0.100972	0.301254	1637.520508
7980.357865	0.102653	0.301254	1730.113159
7980.358755	0.100876	0.301254	1819.893188
7980.359700	0.100034	0.301254	1914.425537
7980.360608	0.100756	0.301254	2005.911621
7980.361499	0.101455	0.301254	2096.308105
7980.362433	0.100298	0.301254	2189.986328
7980.363342	0.099225	0.301254	2280.181641
7980.364244	0.102367	0.301254	2372.516602
7981.374927	0.714591	0.290382	316.563812
7981.375893	0.255743	0.290382	563.611938
7981.376800	0.248990	0.290382	789.446289
7981.377710	0.241392	0.290382	1009.112671
7981.378616	0.438875	0.290382	1406.732910
7981.379569	0.099401	0.290382	1501.461670
7981.380481	0.101085	0.290382	1593.651367
7981.381381	0.102729	0.290382	1686.107910
7981.382310	0.100291	0.290382	1779.277832
7981.383213	0.099657	0.290382	1869.268066
7981.384109	0.102323	0.290382	1960.949463
7981.384999	0.101642	0.290382	2051.410645
7981.385939	0.099419	0.290382	2144.864502
7981.386830	0.101041	0.290382	2234.892334
7981.387734	0.101689	0.290382	2326.819580
7982.380025	0.715507	0.311095	346.305176
7982.380946	0.255758	0.311095	581.858337
7982.381882	0.248972	0.311095	814.896301
7982.382778	0.241659	0.311095	1031.422729
7982.383732	0.488804	0.311095	1497.741455
7982.384650	0.100994	0.311095	1590.453613
7982.385574	0.101697	0.311095	1684.421387
7982.386465	0.102041	0.311095	1775.339966
7982.387428	0.101818	0.311095	1873.390381
7982.388346	0.101477	0.311095	1966.546265
7982.389237	0.102418	0.311095	2057.800781
7982.390174	0.101620	0.311095	2153.018555
7982.391087	0.101239	0.311095	2245.449707
7982.392011	0.101649	0.311095	2339.373535
7982.392904	0.102173	0.311095	2430.613770
7983.417293	0.718597	0.285221	314.027069
7983.418193	0.254806	0.285221	543.352356
7983.419159	0.249012	0.285221	783.898376
7983.420076	0.241410	0.285221	1005.271240
7983.420989	0.493499	0.285221	1455.835449
7983.421914	0.100302	0.285221	1548.614380
7983.422831	0.100488	0.285221	1640.762085
7983.423737	0.102008	0.285221	1733.181396
7983.424631	0.101851	0.285221	1824.235840
7983.425561	0.100616	0.285221	1917.809082
7983.426469	0.100199	0.285221	2008.789795
7983.427375	0.103810	0.285221	2102.841553
7983.428263	0.101539	0.285221	2193.008545
7983.429218	0.099565	0.285221	2288.093506
7983.430125	0.100789	0.285221	2379.508789
7984.411595	0.714532	0.302559	313.679749
7984.412490	0.255260	0.302559	542.137451
7984.413469	0.249240	0.302559	786.142944
7984.414378	0.241688	0.302559	1005.837524
7984.415283	0.495637	0.302559	1454.389160
7984.416220	0.099899	0.302559	1547.994263
7984.417132	0.101104	0.302559	1640.200684
7984.418055	0.102374	0.302559	1734.692139
7984.418944	0.102722	0.302559	1826.012207
7984.419898	0.100594	0.302559	1921.979370
7984.420800	0.101433	0.302559	2013.472046
7984.421689	0.102612	0.302559	2104.694336
7984.422590	0.100814	0.302559	2195.527832
7984.423541	0.101638	0.302559	2292.185791
7984.424443	0.101583	0.302559	2383.813965
7985.455588	0.673861	0.286087	303.911346
7985.456511	0.255293	0.286087	539.546753
7985.457407	0.249434	0.286087	763.039246
7985.458334	0.241677	0.286087	987.074036
7985.459267	0.499457	0.286087	1453.067261
7985.460177	0.100756	0.286087	1544.754883
7985.461075	0.102400	0.286087	1636.709961
7985.462011	0.100437	0.286087	1730.718994
7985.462917	0.100020	0.286087	1821.336670
7985.463821	0.103110	0.286087	1914.548462
7985.464712	0.102144	0.286087	2005.558350
7985.465659	0.099521	0.286087	2099.805176
7985.466563	0.100668	0.286087	2190.808838
7985.467452	0.100133	0.286087	2279.827148
7985.468374	0.100111	0.286087	2372.129639
7986.444246	0.701243	0.293254	311.351746
7986.445148	0.255227	0.293254	541.566528
7986.446096	0.249386	0.293254	777.984436
7986.447013	0.241600	0.293254	999.531921
7986.447949	0.497095	0.293254	1464.812622
7986.448842	0.100507	0.293254	1554.564941
7986.449798	0.100924	0.293254	1651.048340
7986.450700	0.102184	0.293254	1743.218140
7986.451586	0.102894	0.293254	1834.382446
7986.452513	0.100748	0.293254	1927.776123
7986.453432	0.101415	0.293254	2020.976318
7986.454330	0.102506	0.293254	2113.026855
7986.455222	0.102155	0.293254	2204.148682
7986.456151	0.099899	0.293254	2296.954590
7986.457063	0.102426	0.293254	2390.366699
7987.490253	0.728969	0.289769	321.475098
7987.491148	0.255249	0.289769	549.922974
7987.492115	0.249445	0.289769	791.135864
7987.493032	0.241571	0.289769	1012.656494
7987.493935	0.494465	0.289769	1459.158691
7987.494870	0.099598	0.289769	1552.283203
7987.495776	0.100031	0.289769	1642.910889
7987.496682	0.101982	0.289769	1735.307007
7987.497581	0.102389	0.289769	1827.354614
7987.498504	0.100239	0.289769	1919.875488
7987.499412	0.100082	0.289769	2010.749756
7987.500315	0.101353	0.289769	2102.270996
7987.501205	0.100876	0.289769	2192.051025
7987.502156	0.099463	0.289769	2286.640137
7987.503055	0.100261	0.289769	2376.774902
7988.479466	0.646077	0.296106	297.841309
7988.480381	0.255249	0.296106	531.394165
7988.481311	0.249115	0.296106	763.071106
7988.482226	0.241472	0.296106	984.018188
7988.483184	0.488119	0.296106	1451.636108
7988.484079	0.101232	0.296106	1542.238525
7988.484969	0.101759	0.296106	1632.804077
7988.485908	0.100646	0.296106	1727.310425
7988.486812	0.103195	0.296106	1820.598389
7988.487731	0.101660	0.296106	1914.024048
7988.488628	0.101700	0.296106	2005.249390
7988.489581	0.100573	0.296106	2101.094971
7988.490479	0.102418	0.296106	2193.066406
7988.491366	0.102913	0.296106	2284.349854
7988.492290	0.100221	0.296106	2376.954102
7989.523414	0.714913	0.299155	318.851349
7989.524308	0.255018	0.299155	546.837708
7989.525263	0.249221	0.299155	784.843933
7989.526196	0.241461	0.299155	1010.127197
7989.527106	0.500999	0.299155	1466.035889
7989.528053	0.100334	0.299155	1561.052612
7989.528965	0.100042	0.299155	1652.290527
7989.529861	0.101917	0.299155	1743.607666
7989.530749	0.102832	0.299155	1834.922485
7989.531701	0.099734	0.299155	1929.869141
7989.532597	0.099727	0.299155	2019.224121
7989.533491	0.100847	0.299155	2109.381592
7989.534377	0.100690	0.299155	2198.592773
7989.535309	0.099529	0.299155	2291.353516
7989.536222	0.100895	0.299155	2383.470459
7990.516182	0.687074	0.301036	307.122040
7990.517095	0.255590	0.301036	540.475342
7990.517994	0.250089	0.301036	765.305420
7990.518935	0.241652	0.301036	992.699585
7990.519864	0.502423	0.301036	1459.450684
7990.520790	0.100316	0.301036	1552.343506
7990.521683	0.101946	0.301036	1643.381104
7990.522633	0.100540	0.301036	1738.893677
7990.523529	0.102968	0.301036	1831.152588
7990.524421	0.101997	0.301036	1922.134033
7990.525336	0.100470	0.301036	2014.064087
7990.526270	0.100569	0.301036	2107.995361
7990.527174	0.101096	0.301036	2199.386230
7990.528064	0.101997	0.301036	2290.163574
7990.528989	0.099049	0.301036	2381.783936
7991.557070	0.720216	0.299679	313.293976
7991.558031	0.255374	0.299679	558.707947
7991.558947	0.249254	0.299679	787.024780
7991.559848	0.241604	0.299679	1004.709961
7991.560746	0.494458	0.299679	1448.733276
7991.561688	0.099089	0.299679	1542.075439
7991.562593	0.100906	0.299679	1633.395142
7991.563490	0.102158	0.299679	1725.031006
7991.564416	0.100851	0.299679	1818.418823
7991.565327	0.099727	0.299679	1909.269775
7991.566238	0.101543	0.299679	2001.775391
7991.567127	0.102111	0.299679	2092.551758
7991.568059	0.100038	0.299679	2185.787109
7991.568956	0.099686	0.299679	2275.205811
7991.569856	0.102583	0.299679	2367.530518
7992.553925	0.723131	0.302797	314.562012
7992.554823	0.254883	0.302797	543.446777
7992.555791	0.249254	0.302797	784.724792
7992.556704	0.241304	0.302797	1005.035095
7992.557610	0.495725	0.302797	1454.162109
7992.558541	0.100023	0.302797	1547.283691
7992.559457	0.101620	0.302797	1640.367432
7992.560352	0.101675	0.302797	1731.366333
7992.561245	0.102766	0.302797	1823.136475
7992.562198	0.100481	0.302797	1918.894775
7992.563097	0.101162	0.302797	2009.839478
7992.564021	0.100891	0.302797	2103.062988
7992.564915	0.100605	0.302797	2193.004395
7992.565866	0.100012	0.302797	2288.115967
7992.566771	0.103239	0.302797	2381.546875
7993.590730	0.715415	0.298579	314.067200
7993.591706	0.255564	0.298579	563.497620
7993.592630	0.248613	0.298579	793.216309
7993.593525	0.241483	0.298579	1009.343750
7993.594472	0.474115	0.298579	1458.330688
7993.595378	0.099514	0.298579	1548.490479
7993.596284	0.102744	0.298579	1641.576660
7993.597174	0.102070	0.298579	1732.419189
7993.598132	0.099752	0.298579	1827.981812
7993.599040	0.101213	0.298579	1919.883545
7993.599934	0.101993	0.298579	2011.065674
7993.600839	0.100701	0.298579	2102.199707
7993.601770	0.099609	0.298579	2194.936035
7993.602679	0.101265	0.298579	2286.985596
7993.603565	0.102623	0.298579	2377.909912
7994.591173	0.718832	0.298265	309.816498
7994.592122	0.254967	0.298265	551.780273
7994.593061	0.248855	0.298265	785.455078
7994.593987	0.241447	0.298265	1009.034546
7994.594891	0.476884	0.298265	1440.137207
7994.595835	0.101019	0.298265	1535.499390
7994.596728	0.102444	0.298265	1626.981689
7994.597621	0.102187	0.298265	1718.235107
7994.598562	0.100129	0.298265	1812.456909
7994.599469	0.101737	0.298265	1904.732422
7994.600385	0.102250	0.298265	1998.393188
7994.601286	0.102451	0.298265	2090.701660
7994.602232	0.100027	0.298265	2185.327148
7994.603136	0.101287	0.298265	2276.890137
7994.604026	0.101169	0.298265	2366.930908
7995.624914	0.690934	0.295618	305.392761
7995.625838	0.255480	0.295618	541.456055
7995.626746	0.249994	0.295618	768.450500
7995.627681	0.241699	0.295618	994.439270
7995.628603	0.497435	0.295618	1453.074585
7995.629507	0.100851	0.295618	1544.243774
7995.630396	0.102100	0.295618	1635.010376
7995.631349	0.100115	0.295618	1730.419678
7995.632259	0.101147	0.295618	1822.463867
7995.633156	0.102891	0.295618	1914.756714
7995.634086	0.100778	0.295618	2008.479858
7995.634988	0.099749	0.295618	2098.453125
7995.635901	0.101884	0.295618	2191.472900
7995.636800	0.101477	0.295618	2282.700684
7995.637734	0.099529	0.295618	2375.660645
7996.627475	0.723787	0.287372	371.302551
7996.628391	0.255612	0.287372	605.442749
7996.629292	0.248719	0.287372	829.539001
7996.630193	0.241597	0.287372	1047.217651
7996.631147	0.488013	0.287372	1512.781738
7996.632054	0.100378	0.287372	1603.824951
7996.632950	0.102550	0.287372	1695.709839
7996.633860	0.101320	0.287372	1787.910645
7996.634796	0.100236	0.287372	1881.731201
7996.635699	0.101536	0.287372	1973.417847
7996.636593	0.102374	0.287372	2064.940430
7996.637526	0.100049	0.287372	2158.285889
7996.638433	0.100042	0.287372	2249.023437
7996.639333	0.101689	0.287372	2340.543945
7996.640223	0.101517	0.287372	2430.894287
7997.660108	0.714965	0.286905	316.729309
7997.661091	0.255714	0.286905	568.096313
7997.662004	0.248741	0.286905	795.197266
7997.662902	0.241681	0.286905	1012.226685
7997.663840	0.440197	0.286905	1425.131104
7997.664747	0.099320	0.286905	1515.214355
7997.665649	0.102407	0.286905	1607.585693
7997.666548	0.102327	0.286905	1699.577393
7997.667483	0.100422	0.286905	1793.472290
7997.668388	0.100488	0.286905	1884.414185
7997.669292	0.102330	0.286905	1976.920776
7997.670179	0.101602	0.286905	2067.041260
7997.671130	0.099540	0.286905	2161.703613
7997.672032	0.100056	0.286905	2251.954346
7997.672924	0.102513	0.286905	2343.396240
7998.662111	0.702045	0.286409	320.132355
7998.663011	0.255234	0.286409	549.843323
7998.663970	0.249459	0.286409	789.074707
7998.664879	0.241813	0.286409	1008.882446
7998.665791	0.489573	0.286409	1455.372803
7998.666680	0.100496	0.286409	1544.713379
7998.667618	0.100448	0.286409	1638.933594
7998.668526	0.100957	0.286409	1730.602539
7998.669427	0.102429	0.286409	1822.891235
7998.670333	0.100931	0.286409	1914.335083
7998.671262	0.100096	0.286409	2007.324707
7998.672168	0.101385	0.286409	2099.179932
7998.673062	0.102594	0.286409	2190.898926
7998.674001	0.099858	0.286409	2284.666016
7998.674900	0.099496	0.286409	2374.112793
7999.695327	0.687158	0.288383	307.846893
7999.696225	0.255249	0.288383	537.060547
7999.697121	0.249840	0.288383	760.917236
7999.698067	0.241501	0.288383	989.377625
7999.698986	0.493704	0.288383	1443.091309
7999.699877	0.101781	0.288383	1533.778198
7999.700821	0.100865	0.288383	1628.995239
7999.701745	0.100909	0.288383	1722.235596
7999.702646	0.102909	0.288383	1814.956543
7999.703536	0.103323	0.288383	1906.913818
7999.704488	0.099935	0.288383	2002.052246
7999.705395	0.102206	0.288383	2094.752930
7999.706287	0.101774	0.288383	2185.535156
7999.707176	0.100704	0.288383	2275.061279
7999.708123	0.099386	0.288383	2369.179687
8000.695760	0.689648	0.285721	306.893555
8000.696652	0.255176	0.285721	534.510376
8000.697615	0.249415	0.285721	774.697266
8000.698535	0.241677	0.285721	997.040344
8000.699434	0.495439	0.285721	1442.440430
8000.700385	0.099895	0.285721	1537.440552
8000.701291	0.100192	0.285721	1628.214233
8000.702190	0.103356	0.285721	1721.130981
8000.703087	0.102147	0.285721	1812.757080
8000.704037	0.100093	0.285721	1907.845215
8000.704939	0.100287	0.285721	1998.303955
8000.705847	0.100953	0.285721	2089.969727
8000.706746	0.100206	0.285721	2180.055176
8000.707680	0.099331	0.285721	2272.830322
8000.708588	0.100649	0.285721	2364.219971
8001.732560	0.727233	0.288045	322.164062
8001.733463	0.254897	0.288045	552.336426
8001.734411	0.249181	0.288045	788.559937
8001.735338	0.241359	0.288045	1012.299377
8001.736271	0.489467	0.288045	1468.971680
8001.737160	0.101272	0.288045	1559.002441
8001.738116	0.100796	0.288045	1655.363281
8001.739018	0.102213	0.288045	1747.559570
8001.739932	0.101810	0.288045	1840.614136
8001.740827	0.101514	0.288045	1931.468872
8001.741789	0.100800	0.288045	2028.437988
8001.742684	0.101356	0.288045	2119.151855
8001.743574	0.101422	0.288045	2209.417480
8001.744499	0.099518	0.288045	2301.471436
8001.745420	0.100913	0.288045	2394.412354
8002.729965	0.720908	0.290011	341.710510
8002.730900	0.255509	0.290011	580.611450
8002.731817	0.248800	0.290011	808.761108
8002.732716	0.241523	0.290011	1025.890625
8002.733664	0.485332	0.290011	1485.985352
8002.734567	0.099939	0.290011	1576.230225
8002.735469	0.101693	0.290011	1667.957397
8002.736360	0.101199	0.290011	1758.125488
8002.737303	0.100217	0.290011	1852.630371
8002.738213	0.101052	0.290011	1944.587891
8002.739107	0.101935	0.290011	2035.717651
8002.740042	0.100587	0.290011	2129.766602
8002.740948	0.099419	0.290011	2219.840088
8002.741860	0.101104	0.290011	2312.046387
8002.742757	0.100814	0.290011	2402.476807
8003.769323	0.618508	0.292710	291.935913
8003.770230	0.255333	0.292710	523.523193
8003.771178	0.249034	0.292710	759.607788
8003.772089	0.241425	0.292710	979.545532
8003.773025	0.488533	0.292710	1436.812134
8003.773913	0.100049	0.292710	1525.655518
8003.774883	0.101162	0.292710	1623.782715
8003.775778	0.101708	0.292710	1714.811157
8003.776669	0.101656	0.292710	1805.387085
8003.777616	0.100477	0.292710	1900.539062
8003.778510	0.101770	0.292710	1991.521484
8003.779429	0.101473	0.292710	2084.775635
8003.780325	0.101221	0.292710	2175.469482
8003.781260	0.099518	0.292710	2268.518555
8003.782173	0.101477	0.292710	2361.166992
8004.763137	0.723823	0.296811	354.673401
8004.764067	0.255894	0.296811	592.654419
8004.764983	0.248998	0.296811	820.736389
8004.765881	0.241637	0.296811	1037.726318
8004.766841	0.485757	0.296811	1504.052856
8004.767741	0.099738	0.296811	1593.816650
8004.768645	0.102400	0.296811	1686.386108
8004.769534	0.101525	0.296811	1776.641479
8004.770467	0.100177	0.296811	1870.106567
8004.771374	0.101613	0.296811	1962.269165
8004.772273	0.101821	0.296811	2053.806396
8004.773195	0.099873	0.296811	2145.889404
8004.774101	0.099404	0.296811	2235.949707
8004.775005	0.101375	0.296811	2327.592285
8004.775892	0.100873	0.296811	2417.066406
8005.807117	0.555619	0.295796	281.143158
8005.808037	0.255791	0.295796	516.470886
8005.808942	0.248767	0.295796	741.605103
8005.809840	0.241630	0.295796	958.588501
8005.810811	0.487753	0.295796	1432.196289
8005.811714	0.100664	0.295796	1523.095947
8005.812605	0.102832	0.295796	1614.719238
8005.813539	0.101063	0.295796	1709.112305
8005.814436	0.100415	0.295796	1799.184570
8005.815332	0.102107	0.295796	1890.672363
8005.816218	0.102166	0.295796	1981.191040
8005.817171	0.099803	0.295796	2076.303711
8005.818077	0.101671	0.295796	2168.417725
8005.818971	0.102220	0.295796	2259.802734
8005.819895	0.099913	0.295796	2352.122559
8006.796761	0.691637	0.300529	304.320282
8006.797673	0.254890	0.300529	536.780090
8006.798589	0.249269	0.300529	765.110291
8006.799508	0.241417	0.300529	986.972717
8006.800456	0.489954	0.300529	1451.448730
8006.801368	0.100679	0.300529	1543.267700
8006.802262	0.102590	0.300529	1634.983398
8006.803192	0.100507	0.300529	1728.454590
8006.804100	0.100173	0.300529	1819.411987
8006.805002	0.101656	0.300529	1911.106201
8006.805892	0.102275	0.300529	2002.131348
8006.806832	0.099177	0.300529	2095.357910
8006.807740	0.099771	0.300529	2185.949463
8006.808638	0.101499	0.300529	2277.095703
8006.809561	0.100089	0.300529	2369.478027
8007.843806	0.663197	0.294531	298.438660
8007.844705	0.254491	0.294531	527.226074
8007.845595	0.249280	0.294531	749.085083
8007.846548	0.241282	0.294531	979.026611
8007.847472	0.488430	0.294531	1430.336060
8007.848378	0.101609	0.294531	1522.393677
8007.849269	0.101140	0.294531	1612.509521
8007.850226	0.100356	0.294531	1708.550659
8007.851132	0.100931	0.294531	1799.994507
8007.852026	0.102883	0.294531	1891.972168
8007.852948	0.101078	0.294531	1985.166016
8007.853847	0.099657	0.294531	2074.757568
8007.854743	0.101598	0.294531	2165.789307
8007.855629	0.102803	0.294531	2256.872559
8007.856569	0.099214	0.294531	2350.133545
8008.830417	0.701001	0.303010	309.842438
8008.831320	0.255242	0.303010	540.325684
8008.832215	0.250085	0.303010	764.152161
8008.833194	0.241663	0.303010	1000.739868
8008.834109	0.481128	0.303010	1440.971924
8008.835009	0.101689	0.303010	1532.492432
8008.835896	0.101591	0.303010	1622.603271
8008.836830	0.100327	0.303010	1716.308838
8008.837738	0.101466	0.303010	1808.440063
8008.838635	0.101477	0.303010	1899.464966
8008.839572	0.100616	0.303010	1993.742554
8008.840472	0.099675	0.303010	2083.450195
8008.841370	0.102898	0.303010	2175.852539
8008.842259	0.101686	0.303010	2266.251221
8008.843209	0.099265	0.303010	2360.553223
8009.877468	0.692347	0.293093	310.171631
8009.878368	0.254736	0.293093	539.434326
8009.879259	0.249635	0.293093	761.859131
8009.880202	0.241421	0.293093	989.519043
8009.881139	0.489965	0.293093	1448.615845
8009.882033	0.100745	0.293093	1538.681519
8009.882965	0.100448	0.293093	1632.299072
8009.883869	0.100605	0.293093	1723.246460
8009.884777	0.102330	0.293093	1816.162354
8009.885666	0.103469	0.293093	1908.146484
8009.886609	0.100107	0.293093	2002.547729
8009.887511	0.100986	0.293093	2093.637451
8009.888403	0.101254	0.293093	2183.955811
8009.889288	0.101327	0.293093	2273.630127
8009.890219	0.099258	0.293093	2366.039062
8010.868169	0.714192	0.300843	312.101868
8010.869068	0.255253	0.300843	541.574036
8010.870051	0.249174	0.300843	786.511658
8010.870969	0.241663	0.300843	1008.357910
8010.871876	0.481860	0.300843	1445.405273
8010.872816	0.099558	0.300843	1538.989868
8010.873718	0.100162	0.300843	1629.336304
8010.874625	0.102301	0.300843	1722.123291
8010.875512	0.101466	0.300843	1812.123657
8010.876448	0.099686	0.300843	1905.430054
8010.877363	0.100206	0.300843	1997.118774
8010.878261	0.101305	0.300843	2088.090576
8010.879185	0.100833	0.300843	2181.259766
8010.880092	0.099430	0.300843	2271.442627
8010.881002	0.101133	0.300843	2363.473389
8011.910614	0.700862	0.291920	313.986084
8011.911516	0.255135	0.291920	544.118286
8011.912456	0.249463	0.291920	778.613403
8011.913381	0.241428	0.291920	1001.934509
8011.914298	0.490115	0.291920	1451.369751
8011.915185	0.100997	0.291920	1540.954346
8011.916141	0.100408	0.291920	1636.944092
8011.917044	0.100583	0.291920	1727.770996
8011.917937	0.102744	0.291920	1819.521484
8011.918828	0.101594	0.291920	1910.041992
8011.919777	0.099994	0.291920	2004.936157
8011.920685	0.100422	0.291920	2096.119629
8011.921583	0.101631	0.291920	2187.384033
8011.922519	0.100400	0.291920	2281.358887
8011.923420	0.099203	0.291920	2370.740723
8012.908491	0.719916	0.300231	316.762970
8012.909463	0.255439	0.300231	565.050110
8012.910371	0.248749	0.300231	790.914001
8012.911288	0.241337	0.300231	1012.219727
8012.912198	0.394742	0.300231	1371.435303
8012.913135	0.099426	0.300231	1464.597656
8012.914046	0.101162	0.300231	1556.756348
8012.914945	0.103162	0.300231	1649.498657
8012.915875	0.100583	0.300231	1743.041260
8012.916781	0.100334	0.300231	1833.944336
8012.917683	0.101364	0.300231	1925.374268
8012.918572	0.101656	0.300231	2015.746948
8012.919521	0.099624	0.300231	2110.290039
8012.920429	0.100635	0.300231	2201.666504
8012.921317	0.101752	0.300231	2292.021973
8013.941717	0.714690	0.296750	318.037018
8013.942666	0.255385	0.296750	560.396973
8013.943580	0.249159	0.296750	788.128235
8013.944482	0.241593	0.296750	1006.045166
8013.945382	0.402466	0.296750	1368.264404
8013.946337	0.099283	0.296750	1463.080078
8013.947245	0.101726	0.296750	1555.447388
8013.948151	0.102762	0.296750	1648.550171
8013.949086	0.100573	0.296750	1742.585449
8013.949990	0.099979	0.296750	1832.966675
8013.950890	0.101503	0.296750	1924.319092
8013.951781	0.101290	0.296750	2014.568726
8013.952725	0.099624	0.296750	2108.613770
8013.953634	0.099910	0.296750	2199.431641
8013.954534	0.102363	0.296750	2291.558594
8014.949843	0.687107	0.308626	308.511017
8014.950743	0.255388	0.308626	538.360352
8014.951640	0.250188	0.308626	762.778931
8014.952588	0.241728	0.308626	991.937561
8014.953512	0.487192	0.308626	1442.103271
8014.954416	0.101089	0.308626	1533.487549
8014.955310	0.101122	0.308626	1623.890503
8014.956251	0.100133	0.308626	1718.115723
8014.957162	0.101664	0.308626	1810.731445
8014.958057	0.101620	0.308626	1901.681274
8014.958998	0.099734	0.308626	1995.530884
8014.959901	0.099445	0.308626	2085.329346
8014.960795	0.101964	0.308626	2176.485352
8014.961685	0.101349	0.308626	2266.685791
8014.962622	0.099276	0.308626	2359.707520
8015.970766	0.719052	0.306189	316.382690
8015.971658	0.254813	0.306189	543.676147
8015.972634	0.248925	0.306189	786.626526
8015.973542	0.241619	0.306189	1006.016235
8015.974442	0.494092	0.306189	1450.698853
8015.975375	0.100042	0.306189	1544.037598
8015.976281	0.099994	0.306189	1634.632080
8015.977182	0.101693	0.306189	1726.257568
8015.978077	0.102927	0.306189	1818.377441
8015.979005	0.099807	0.306189	1910.998413
8015.979909	0.100573	0.306189	2001.916016
8015.980811	0.102825	0.306189	2094.663818
8015.981703	0.100946	0.306189	2184.707764
8015.982660	0.099492	0.306189	2279.921875
8015.983563	0.100441	0.306189	2370.619873
8016.990166	0.700785	0.305145	311.849304
8016.991078	0.254989	0.305145	544.399292
8016.991980	0.249580	0.305145	769.520508
8016.992918	0.241534	0.305145	996.079773
8016.993849	0.495729	0.305145	1457.603271
8016.994773	0.101744	0.305145	1551.615112
8016.995663	0.101448	0.305145	1641.903564
8016.996609	0.100510	0.305145	1736.986328
8016.997504	0.102067	0.305145	1828.335937
8016.998419	0.102100	0.305145	1921.757080
8016.999320	0.101221	0.305145	2012.956909
8017.000282	0.101382	0.305145	2110.486328
8017.001186	0.101074	0.305145	2201.857422
8017.002072	0.101909	0.305145	2292.148926
8017.002997	0.100137	0.305145	2384.775391
8018.001354	0.719161	0.314592	315.711823
8018.002312	0.255732	0.314592	560.703491
8018.003221	0.249174	0.314592	787.202271
8018.004135	0.241696	0.314592	1008.112000
8018.005069	0.441335	0.314592	1420.319336
8018.005978	0.099232	0.314592	1510.521362
8018.006892	0.101082	0.314592	1602.909912
8018.007783	0.103905	0.314592	1695.489258
8018.008717	0.100115	0.314592	1788.996460
8018.009620	0.099825	0.314592	1879.138794
8018.010521	0.101129	0.314592	1970.256104
8018.011412	0.101415	0.314592	2060.616699
8018.012374	0.099327	0.314592	2156.169678
8018.013279	0.100737	0.314592	2247.336914
8018.014175	0.102345	0.314592	2339.038086
8019.028476	0.721707	0.297765	352.192780
8019.029389	0.255824	0.297765	585.760071
8019.030300	0.249412	0.297765	812.974060
8019.031191	0.241615	0.297765	1028.253052
8019.032142	0.481447	0.297765	1486.108643
8019.033047	0.099910	0.297765	1576.526855
8019.033955	0.102982	0.297765	1670.034668
8019.034845	0.101060	0.297765	1759.977661
8019.035797	0.100214	0.297765	1855.380981
8019.036705	0.101975	0.297765	1947.974365
8019.037601	0.101272	0.297765	2038.714111
8019.038530	0.100063	0.297765	2131.673096
8019.039435	0.099196	0.297765	2221.445068
8019.040335	0.101404	0.297765	2312.708496
8019.041222	0.101085	0.297765	2402.371094
8020.033985	0.720443	0.312509	311.231445
8020.034932	0.255209	0.312509	552.914124
8020.035857	0.249327	0.312509	783.541992
8020.036776	0.241611	0.312509	1005.582825
8020.037679	0.483702	0.312509	1442.366089
8020.038622	0.099214	0.312509	1535.924805
8020.039526	0.100594	0.312509	1626.862183
8020.040428	0.102360	0.312509	1719.190552
8020.041317	0.100950	0.312509	1808.934814
8020.042258	0.099745	0.312509	1902.794678
8020.043170	0.100986	0.312509	1994.894165
8020.044071	0.101613	0.312509	2086.447021
8020.045011	0.099620	0.312509	2180.090088
8020.045912	0.099342	0.312509	2269.597168
8020.046811	0.100986	0.312509	2360.383789
8021.064653	0.715331	0.291570	312.599548
8021.065619	0.255707	0.291570	559.612305
8021.066534	0.249005	0.291570	787.452026
8021.067442	0.241597	0.291570	1006.821777
8021.068395	0.485687	0.291570	1469.681763
8021.069302	0.099536	0.291570	1559.961060
8021.070207	0.102078	0.291570	1652.341309
8021.071096	0.102169	0.291570	1743.169678
8021.072044	0.099913	0.291570	1837.887451
8021.072954	0.100283	0.291570	1929.145142
8021.073850	0.102155	0.291570	2020.675659
8021.074760	0.100558	0.291570	2112.183350
8021.075682	0.099291	0.291570	2203.729492
8021.076585	0.100334	0.291570	2294.331543
8021.077485	0.101829	0.291570	2385.977295
8022.069769	0.556058	0.309355	278.029175
8022.070683	0.255062	0.309355	511.156067
8022.071617	0.248093	0.309355	742.875122
8022.072509	0.241348	0.309355	958.157227
8022.073474	0.475939	0.309355	1417.438110
8022.074411	0.101829	0.309355	1512.851562
8022.075303	0.102158	0.309355	1603.976685
8022.076251	0.101418	0.309355	1700.121338
8022.077172	0.101224	0.309355	1793.348999
8022.078086	0.102367	0.309355	1886.912354
8022.078984	0.101594	0.309355	1978.144043
8022.079919	0.101294	0.309355	2072.854004
8022.080834	0.101316	0.309355	2165.558105
8022.081757	0.102693	0.309355	2260.343750
8022.082644	0.100360	0.309355	2349.363281
8023.100361	0.714086	0.288247	311.341370
8023.101311	0.255110	0.288247	553.695740
8023.102234	0.249185	0.288247	783.693115
8023.103150	0.241600	0.288247	1004.999023
8023.104057	0.476620	0.288247	1437.293213
8023.104995	0.099518	0.288247	1530.640869
8023.105914	0.100822	0.288247	1623.295898
8023.106823	0.101825	0.288247	1715.854736
8023.107711	0.101396	0.288247	1805.894775
8023.108666	0.099525	0.288247	1900.941284
8023.109571	0.100796	0.288247	1992.161621
8023.110465	0.102839	0.288247	2084.100098
8023.111397	0.099965	0.288247	2177.267090
8023.112301	0.099185	0.288247	2266.929932
8023.113204	0.102323	0.288247	2359.327637
8024.106981	0.701030	0.310785	316.865662
8024.107882	0.254956	0.310785	546.581055
8024.108783	0.249331	0.310785	771.228333
8024.109761	0.241274	0.310785	1007.194702
8024.110671	0.464502	0.310785	1429.891479
8024.111570	0.101349	0.310785	1521.004150
8024.112507	0.101444	0.310785	1616.057251
8024.113432	0.101957	0.310785	1710.367310
8024.114347	0.101543	0.310785	1803.279175
8024.115239	0.101763	0.310785	1894.051514
8024.116175	0.101093	0.310785	1988.674072
8024.117095	0.101766	0.310785	2082.299072
8024.118014	0.101411	0.310785	2175.495850
8024.118903	0.102136	0.310785	2266.294922
8024.119852	0.100492	0.310785	2361.661865
8025.135566	0.700741	0.290357	309.727509
8025.136472	0.255066	0.290357	540.817261
8025.137364	0.249774	0.290357	763.615845
8025.138325	0.241436	0.290357	995.635376
8025.139240	0.494169	0.290357	1447.799683
8025.140131	0.101492	0.290357	1538.228760
8025.141054	0.100763	0.290357	1631.232910
8025.141966	0.100009	0.290357	1722.440674
8025.142870	0.101140	0.290357	1813.871338
8025.143765	0.101917	0.290357	1905.086670
8025.144699	0.099719	0.290357	1998.224487
8025.145609	0.099470	0.290357	2088.742432
8025.146512	0.100778	0.290357	2179.744629
8025.147396	0.100887	0.290357	2268.929199
8025.148339	0.099459	0.290357	2362.719238
8026.143717	0.641005	0.309850	295.503143
8026.144623	0.255128	0.309850	526.649292
8026.145531	0.249335	0.309850	753.045227
8026.146495	0.241545	0.309850	985.895020
8026.147430	0.485881	0.309850	1440.194092
8026.148322	0.101503	0.309850	1530.734497
8026.149272	0.102334	0.309850	1627.951782
8026.150179	0.101876	0.309850	1720.353516
8026.151097	0.102279	0.309850	1814.245728
8026.151998	0.101334	0.309850	1905.547852
8026.152948	0.101847	0.309850	2002.302490
8026.153859	0.100781	0.309850	2094.114258
8026.154755	0.101331	0.309850	2184.906494
8026.155678	0.101334	0.309850	2278.437988
8026.156601	0.101224	0.309850	2371.868164
8027.169239	0.700038	0.291324	315.017029
8027.170138	0.255077	0.291324	544.331177
8027.171082	0.249294	0.291324	779.665100
8027.171993	0.241604	0.291324	999.766357
8027.172914	0.492283	0.291324	1453.158691
8027.173803	0.101254	0.291324	1543.173218
8027.174753	0.100078	0.291324	1638.247437
8027.175666	0.101448	0.291324	1730.869263
8027.176553	0.102550	0.291324	1821.831177
8027.177468	0.100800	0.291324	1914.062744
8027.178389	0.099441	0.291324	2005.647827
8027.179298	0.101426	0.291324	2097.843750
8027.180199	0.101444	0.291324	2189.244873
8027.181141	0.099598	0.291324	2283.066650
8027.182051	0.099529	0.291324	2373.637939
8028.180434	0.715031	0.309701	318.188599
8028.181401	0.255802	0.309701	565.549133
8028.182320	0.249045	0.309701	794.421875
8028.183224	0.241663	0.309701	1012.884888
8028.184170	0.461422	0.309701	1449.390137
8028.185074	0.099613	0.309701	1539.440308
8028.185985	0.101909	0.309701	1632.279541
8028.186875	0.104081	0.309701	1724.911499
8028.187795	0.100426	0.309701	1817.303467
8028.188703	0.100389	0.309701	1908.457031
8028.189610	0.101569	0.309701	2000.579712
8028.190497	0.101353	0.309701	2090.479492
8028.191432	0.099338	0.309701	2183.360840
8028.192336	0.101210	0.309701	2274.854492
8028.193225	0.101569	0.309701	2365.148926
8029.204473	0.586252	0.288174	278.469910
8029.205393	0.254967	0.288174	513.039612
8029.206302	0.248789	0.288174	739.188843
8029.207199	0.241249	0.288174	955.588989
8029.208148	0.454680	0.288174	1387.080444
8029.209057	0.100137	0.288174	1478.104736
8029.209955	0.102308	0.288174	1569.977661
8029.210882	0.100466	0.288174	1663.109985
8029.211785	0.099869	0.288174	1753.291992
8029.212688	0.102246	0.288174	1845.620239
8029.213575	0.101715	0.288174	1935.841553
8029.214519	0.099500	0.288174	2029.769043
8029.215413	0.100979	0.288174	2120.044189
8029.216320	0.102997	0.288174	2213.462402
8029.217208	0.100660	0.288174	2302.848877
8030.215646	0.687806	0.310209	315.703125
8030.216544	0.255370	0.310209	545.025269
8030.217488	0.249034	0.310209	780.113770
8030.218400	0.241666	0.310209	1000.513367
8030.219310	0.491847	0.310209	1448.093994
8030.220198	0.101169	0.310209	1537.932495
8030.221157	0.100360	0.310209	1634.177856
8030.222064	0.100975	0.310209	1725.762451
8030.222961	0.102971	0.310209	1818.127563
8030.223882	0.100488	0.310209	1910.677246
8030.224792	0.099547	0.310209	2001.265137
8030.225701	0.101711	0.310209	2093.720703
8030.226592	0.102283	0.310209	2184.854492
8030.227518	0.099811	0.310209	2277.279297
8030.228425	0.099532	0.310209	2367.555176
8031.238110	0.663984	0.286953	298.128967
8031.239005	0.255439	0.286953	526.747253
8031.239898	0.250291	0.286953	750.256714
8031.240865	0.241736	0.286953	984.015259
8031.241779	0.460653	0.286953	1405.052246
8031.242683	0.101774	0.286953	1497.055664
8031.243573	0.101503	0.286953	1587.393066
8031.244520	0.099891	0.286953	1681.990234
8031.245431	0.100686	0.286953	1773.715210
8031.246327	0.102114	0.286953	1865.209595
8031.247253	0.099987	0.286953	1957.797119
8031.248153	0.099415	0.286953	2047.270874
8031.249053	0.101444	0.286953	2138.570557
8031.249942	0.101177	0.286953	2228.516602
8031.250897	0.099430	0.286953	2323.472168
8032.250826	0.705498	0.313774	306.186157
8032.251771	0.255264	0.313774	547.410278
8032.252703	0.249126	0.313774	779.595703
8032.253630	0.241538	0.313774	1003.501526
8032.254539	0.491422	0.313774	1450.204224
8032.255486	0.100419	0.313774	1545.300781
8032.256403	0.102360	0.313774	1639.164551
8032.257332	0.103627	0.313774	1735.433716
8032.258218	0.102096	0.313774	1825.890747
8032.259163	0.102191	0.313774	1922.461426
8032.260071	0.101583	0.313774	2014.698975
8032.260966	0.101700	0.313774	2105.720947
8032.261904	0.101276	0.313774	2200.717529
8032.262813	0.100664	0.313774	2292.221191
8032.263736	0.100990	0.313774	2385.435059
8033.274332	0.687330	0.286119	304.487335
8033.275254	0.255568	0.286119	540.120667
8033.276151	0.250038	0.286119	764.404602
8033.277088	0.241809	0.286119	990.979736
8033.278022	0.495410	0.286119	1453.692749
8033.278923	0.101418	0.286119	1545.070801
8033.279812	0.101642	0.286119	1635.430420
8033.280767	0.100096	0.286119	1731.022461
8033.281670	0.100518	0.286119	1821.789795
8033.282575	0.102030	0.286119	1914.126953
8033.283465	0.101034	0.286119	2004.047119
8033.284399	0.099697	0.286119	2097.164307
8033.285307	0.101067	0.286119	2188.933105
8033.286202	0.101660	0.286119	2279.918945
8033.287126	0.099943	0.286119	2372.265869
8034.284515	0.646014	0.305113	296.520599
8034.285424	0.255344	0.305113	528.628540
8034.286320	0.249635	0.305113	752.301514
8034.287274	0.241890	0.305113	983.064209
8034.288194	0.490913	0.305113	1434.704224
8034.289098	0.101290	0.305113	1526.270630
8034.289988	0.101539	0.305113	1616.640625
8034.290940	0.100338	0.305113	1712.162476
8034.291846	0.101144	0.305113	1803.798706
8034.292743	0.102444	0.305113	1895.690796
8034.293653	0.101788	0.305113	1988.318115
8034.294550	0.101572	0.305113	2079.428467
8034.295504	0.101147	0.305113	2175.923096
8034.296431	0.100928	0.305113	2269.483154
8034.297326	0.101462	0.305113	2360.291992
8035.309514	0.713979	0.287094	312.009033
8035.310479	0.255710	0.287094	558.769653
8035.311397	0.249005	0.287094	787.356323
8035.312304	0.241633	0.287094	1006.517700
8035.313208	0.447623	0.287094	1411.169189
8035.314152	0.099492	0.287094	1505.089844
8035.315058	0.101257	0.287094	1596.828979
8035.315944	0.101971	0.287094	1687.175659
8035.316869	0.100386	0.287094	1780.032471
8035.317778	0.099891	0.287094	1870.833740
8035.318681	0.101938	0.287094	1962.884155
8035.319574	0.102125	0.287094	2054.082031
8035.320527	0.099862	0.287094	2149.250488
8035.321426	0.100635	0.287094	2239.721191
8035.322327	0.101451	0.287094	2331.128906
8036.318166	0.691600	0.307848	308.453735
8036.319068	0.255220	0.307848	538.661926
8036.320007	0.249580	0.307848	773.017578
8036.320926	0.241783	0.307848	995.216553
8036.321847	0.496300	0.307848	1452.308838
8036.322739	0.101858	0.307848	1543.166138
8036.323692	0.100334	0.307848	1638.784912
8036.324588	0.100459	0.307848	1728.796143
8036.325486	0.103550	0.307848	1821.783813
8036.326374	0.102008	0.307848	1912.366943
8036.327314	0.099598	0.307848	2005.989380
8036.328215	0.100137	0.307848	2096.212646
8036.329115	0.101799	0.307848	2187.832031
8036.330039	0.101056	0.307848	2281.207764
8036.330938	0.099360	0.307848	2370.532715
8037.345741	0.728280	0.292396	317.530090
8037.346694	0.255018	0.292396	560.562561
8037.347606	0.248943	0.292396	787.598450
8037.348508	0.241260	0.292396	1005.214783
8037.349414	0.494982	0.292396	1453.668213
8037.350349	0.099166	0.292396	1546.388672
8037.351248	0.100635	0.292396	1636.859375
8037.352153	0.103187	0.292396	1730.243896
8037.353047	0.100814	0.292396	1820.371826
8037.353985	0.100052	0.292396	1914.221069
8037.354893	0.101418	0.292396	2006.309082
8037.355787	0.102814	0.292396	2098.224609
8037.356726	0.100254	0.292396	2192.363037
8037.357618	0.099580	0.292396	2281.188477
8037.358509	0.101906	0.292396	2371.986328
8038.351830	0.710929	0.310297	316.363373
8038.352721	0.254817	0.310297	543.405212
8038.353685	0.248511	0.310297	782.969543
8038.354607	0.241549	0.310297	1005.677795
8038.355520	0.495483	0.310297	1458.054199
8038.356449	0.100371	0.310297	1551.298950
8038.357359	0.100353	0.310297	1642.619995
8038.358270	0.101832	0.310297	1735.389160
8038.359169	0.102155	0.310297	1827.226074
8038.360108	0.100140	0.310297	1921.257935
8038.361007	0.100126	0.310297	2011.270996
8038.361914	0.102147	0.310297	2103.918457
8038.362803	0.101243	0.310297	2193.923096
8038.363737	0.099163	0.310297	2286.541016
8038.364653	0.100437	0.310297	2378.541260
8039.382480	0.719143	0.291348	314.984650
8039.383434	0.255714	0.291348	558.935913
8039.384343	0.249412	0.291348	785.651062
8039.385250	0.241586	0.291348	1004.769287
8039.386151	0.403458	0.291348	1368.285156
8039.387093	0.099445	0.291348	1461.961914
8039.388001	0.101873	0.291348	1554.462158
8039.388900	0.102074	0.291348	1646.226685
8039.389838	0.100726	0.291348	1740.708008
8039.390749	0.100012	0.291348	1831.819092
8039.391650	0.103129	0.291348	1924.738037
8039.392537	0.102063	0.291348	2015.267944
8039.393480	0.099628	0.291348	2109.216797
8039.394382	0.099760	0.291348	2199.199951
8039.395284	0.101470	0.291348	2290.725586
8040.387540	0.705018	0.305951	312.323120
8040.388445	0.254897	0.305951	543.005310
8040.389336	0.249507	0.305951	765.315918
8040.390282	0.241392	0.305951	993.672363
8040.391209	0.495626	0.305951	1453.117920
8040.392107	0.102026	0.305951	1544.737549
8040.393045	0.100792	0.305951	1639.280640
8040.393950	0.100627	0.305951	1730.348511
8040.394851	0.102960	0.305951	1823.115601
8040.395738	0.102762	0.305951	1914.265869
8040.396701	0.099485	0.305951	2010.069824
8040.397602	0.099847	0.305951	2100.032227
8040.398502	0.101166	0.305951	2191.081543
8040.399388	0.100496	0.305951	2280.120605
8040.400326	0.099291	0.305951	2373.255371
8041.418193	0.714866	0.293673	318.830109
8041.419089	0.255070	0.293673	547.372437
8041.420065	0.249071	0.293673	790.465759
8041.420980	0.241582	0.293673	1011.513306
8041.421889	0.490876	0.293673	1457.719971
8041.422819	0.100181	0.293673	1550.887939
8041.423729	0.100452	0.293673	1642.298950
8041.424630	0.103436	0.293673	1735.494995
8041.425526	0.102839	0.293673	1827.639038
8041.426459	0.100228	0.293673	1921.151978
8041.427363	0.100060	0.293673	2011.606079
8041.428263	0.101342	0.293673	2102.813477
8041.429152	0.101012	0.293673	2192.613037
8041.430099	0.099426	0.293673	2286.769775
8041.431010	0.100177	0.293673	2378.031006
8042.423763	0.691666	0.306374	305.024841
8042.424673	0.255341	0.306374	537.384766
8042.425574	0.249950	0.306374	762.589661
8042.426517	0.241740	0.306374	990.550049
8042.427443	0.477257	0.306374	1432.490112
8042.428345	0.101470	0.306374	1524.015869
8042.429234	0.100411	0.306374	1613.281616
8042.430183	0.100148	0.306374	1708.321777
8042.431093	0.101001	0.306374	1800.232666
8042.431989	0.102781	0.306374	1892.324219
8042.432913	0.099877	0.306374	1984.610352
8042.433816	0.099661	0.306374	2074.604004
8042.434715	0.101598	0.306374	2165.940430
8042.435607	0.100631	0.306374	2255.703369
8042.436551	0.099485	0.306374	2349.617187
8043.451346	0.719440	0.295441	319.431213
8043.452240	0.255344	0.295441	547.708984
8043.453182	0.249935	0.295441	783.148071
8043.454104	0.241681	0.295441	1005.977844
8043.455019	0.494440	0.295441	1458.390137
8043.455911	0.100756	0.295441	1548.264160
8043.456856	0.100459	0.295441	1643.197876
8043.457772	0.101616	0.295441	1736.278320
8043.458678	0.102173	0.295441	1828.846924
8043.459575	0.102660	0.295441	1920.932861
8043.460507	0.100481	0.295441	2014.581055
8043.461413	0.101627	0.295441	2106.655273
8043.462300	0.101726	0.295441	2196.886230
8043.463220	0.099774	0.295441	2288.678467
8043.464132	0.100217	0.295441	2380.076660
8044.462607	0.735205	0.302354	369.808167
8044.463529	0.255655	0.302354	605.522522
8044.464430	0.248881	0.302354	829.763916
8044.465325	0.241560	0.302354	1045.960205
8044.466281	0.492231	0.302354	1516.533447
8044.467191	0.100023	0.302354	1607.554565
8044.468095	0.102085	0.302354	1699.839355
8044.468984	0.101407	0.302354	1789.990601
8044.469924	0.100045	0.302354	1884.033081
8044.470836	0.101748	0.302354	1976.827271
8044.471729	0.102048	0.302354	2067.956543
8044.472665	0.100217	0.302354	2161.760010
8044.473559	0.099990	0.302354	2251.151367
8044.474462	0.101704	0.302354	2342.990234
8044.475352	0.102180	0.302354	2433.930664
8045.482435	0.720099	0.299953	311.802826
8045.483404	0.254905	0.299953	558.805542
8045.484323	0.248939	0.299953	787.580688
8045.485264	0.241238	0.299953	1014.585449
8045.486166	0.487661	0.299953	1454.455811
8045.487101	0.100100	0.299953	1548.049438
8045.488002	0.102429	0.299953	1640.338135
8045.488918	0.102118	0.299953	1733.878174
8045.489807	0.101122	0.299953	1823.775513
8045.490763	0.103246	0.299953	1922.478516
8045.491670	0.101909	0.299953	2014.910156
8045.492562	0.102180	0.299953	2106.054932
8045.493491	0.100466	0.299953	2199.388184
8045.494415	0.101887	0.299953	2293.531982
8045.495339	0.101232	0.299953	2387.070068
8046.503386	0.678124	0.292625	301.765076
8046.504289	0.255330	0.292625	532.327698
8046.505186	0.250009	0.292625	756.585388
8046.506147	0.241666	0.292625	988.826660
8046.507066	0.467146	0.292625	1418.133789
8046.507969	0.101027	0.292625	1509.360840
8046.508888	0.100946	0.292625	1602.130249
8046.509808	0.100375	0.292625	1694.474976
8046.510717	0.101913	0.292625	1787.113770
8046.511619	0.102004	0.292625	1879.121704
8046.512545	0.099840	0.292625	1971.573608
8046.513448	0.099778	0.292625	2061.673096
8046.514343	0.101730	0.292625	2152.721191
8046.515229	0.102136	0.292625	2243.213867
8046.516170	0.099108	0.292625	2336.474121
8047.513044	0.691450	0.307413	305.620972
8047.513966	0.255425	0.307413	541.122681
8047.514874	0.249683	0.307413	767.834473
8047.515826	0.241728	0.307413	997.960022
8047.516737	0.489800	0.307413	1444.167725
8047.517637	0.101763	0.307413	1535.754150
8047.518523	0.101576	0.307413	1625.750366
8047.519454	0.100111	0.307413	1718.953735
8047.520361	0.101338	0.307413	1810.867187
8047.521259	0.102579	0.307413	1902.983398
8047.522188	0.100796	0.307413	1996.622803
8047.523096	0.099712	0.307413	2087.161133
8047.524003	0.102220	0.307413	2179.875000
8047.524900	0.101869	0.307413	2271.251465
8047.525843	0.099701	0.307413	2365.269531
8048.544215	0.716052	0.290817	325.087708
8048.545115	0.255223	0.290817	554.788757
8048.546065	0.249346	0.290817	791.667175
8048.546977	0.241648	0.290817	1012.050110
8048.547883	0.499636	0.290817	1464.720459
8048.548768	0.100148	0.290817	1553.351196
8048.549713	0.100151	0.290817	1647.994263
8048.550616	0.101294	0.290817	1739.462646
8048.551530	0.102191	0.290817	1832.865356
8048.552419	0.101063	0.290817	1922.710571
8048.553375	0.100525	0.290817	2018.812378
8048.554284	0.102719	0.290817	2112.183594
8048.555176	0.101840	0.290817	2203.024414
8048.556114	0.100375	0.290817	2297.176025
8048.557019	0.100005	0.290817	2387.680420
8049.544147	0.705916	0.309387	312.720581
8049.545040	0.254802	0.309387	540.259033
8049.545995	0.249232	0.309387	778.275757
8049.546921	0.241359	0.309387	1001.773865
8049.547824	0.483332	0.309387	1438.223145
8049.548756	0.099825	0.309387	1531.260498
8049.549670	0.099946	0.309387	1622.611450
8049.550570	0.102462	0.309387	1714.827393
8049.551461	0.102074	0.309387	1805.775269
8049.552411	0.099752	0.309387	1900.539917
8049.553310	0.100074	0.309387	1990.506836
8049.554211	0.102297	0.309387	2082.676758
8049.555096	0.101049	0.309387	2172.104736
8049.556043	0.099500	0.309387	2266.330811
8049.556942	0.100543	0.309387	2356.719238
8050.583580	0.555981	0.289894	286.330444
8050.584483	0.255886	0.289894	517.395691
8050.585378	0.249335	0.289894	740.550232
8050.586308	0.241721	0.289894	965.350952
8050.587221	0.491052	0.289894	1413.681641
8050.588138	0.101367	0.289894	1506.635376
8050.589036	0.102579	0.289894	1598.751587
8050.589991	0.100836	0.289894	1695.050171
8050.590892	0.103510	0.289894	1788.312256
8050.591784	0.101759	0.289894	1879.081299
8050.592707	0.101191	0.289894	1972.480957
8050.593622	0.101953	0.289894	2065.768066
8050.594520	0.102294	0.289894	2157.627930
8050.595414	0.101396	0.289894	2248.276367
8050.596351	0.099730	0.289894	2341.723633
8051.575295	0.703451	0.309435	345.394409
8051.576215	0.255253	0.309435	580.226868
8051.577122	0.248562	0.309435	805.672607
8051.578017	0.241370	0.309435	1021.698425
8051.578984	0.489778	0.309435	1495.313599
8051.579890	0.099954	0.309435	1585.871582
8051.580793	0.101873	0.309435	1677.862549
8051.581706	0.101045	0.309435	1770.116577
8051.582631	0.099778	0.309435	1862.411133
8051.583538	0.102195	0.309435	1955.101807
8051.584430	0.102067	0.309435	2046.145264
8051.585364	0.099694	0.309435	2139.259033
8051.586271	0.099613	0.309435	2229.608154
8051.587170	0.101140	0.309435	2320.533203
8051.588059	0.101320	0.309435	2410.606201
8052.620254	0.687382	0.294543	309.321716
8052.621150	0.255344	0.294543	538.110168
8052.622118	0.249152	0.294543	779.288940
8052.623030	0.241512	0.294543	999.548279
8052.623945	0.492202	0.294543	1449.913330
8052.624834	0.101664	0.294543	1540.292480
8052.625782	0.100525	0.294543	1635.590088
8052.626688	0.101202	0.294543	1727.279419
8052.627585	0.102162	0.294543	1818.918579
8052.628520	0.100532	0.294543	1912.916260
8052.629422	0.099866	0.294543	2002.995117
8052.630322	0.101957	0.294543	2094.756348
8052.631210	0.101016	0.294543	2184.458252
8052.632162	0.099412	0.294543	2279.098145
8052.633071	0.100067	0.294543	2370.059082
8053.608399	0.701345	0.307147	312.098602
8053.609356	0.255363	0.307147	556.480591
8053.610260	0.248833	0.307147	781.425659
8053.611155	0.241443	0.307147	997.517029
8053.612117	0.455522	0.307147	1435.729614
8053.613025	0.100701	0.307147	1527.165771
8053.613919	0.101931	0.307147	1618.292236
8053.614810	0.103026	0.307147	1710.088501
8053.615749	0.100001	0.307147	1803.989624
8053.616658	0.101272	0.307147	1896.045898
8053.617562	0.101393	0.307147	1987.705078
8053.618449	0.100759	0.307147	2077.078613
8053.619390	0.099412	0.307147	2170.625000
8053.620287	0.101158	0.307147	2261.364014
8053.621182	0.101536	0.307147	2352.238525
8054.655951	0.714778	0.296408	313.072693
8054.656857	0.255190	0.296408	544.275208
8054.657752	0.249972	0.296408	768.000061
8054.658711	0.241747	0.296408	999.835266
8054.659630	0.493920	0.296408	1453.747437
8054.660531	0.103693	0.296408	1547.174438
8054.661453	0.101426	0.296408	1640.688965
8054.662359	0.100415	0.296408	1731.665039
8054.663271	0.102158	0.296408	1824.833374
8054.664169	0.102554	0.296408	1916.926636
8054.665103	0.100056	0.296408	2010.379028
8054.666014	0.099906	0.296408	2101.393311
8054.666922	0.101407	0.296408	2193.471191
8054.667815	0.100942	0.296408	2283.612793
8054.668762	0.099203	0.296408	2377.557861
8055.644624	0.714199	0.309206	313.533478
8055.645598	0.255637	0.309206	562.524109
8055.646509	0.248815	0.309206	789.194275
8055.647416	0.241582	0.309206	1008.309204
8055.648328	0.399979	0.309206	1373.090332
8055.649284	0.099749	0.309206	1468.449951
8055.650189	0.101473	0.309206	1560.283325
8055.651077	0.101909	0.309206	1650.778687
8055.652009	0.100177	0.309206	1744.143677
8055.652921	0.100745	0.309206	1836.022827
8055.653823	0.101711	0.309206	1927.766479
8055.654710	0.102081	0.309206	2018.312622
8055.655655	0.099694	0.309206	2112.523193
8055.656556	0.101492	0.309206	2203.967285
8055.657456	0.102660	0.309206	2296.361328
8056.690635	0.714697	0.298092	313.752075
8056.691585	0.255205	0.298092	556.196899
8056.692502	0.249141	0.298092	784.658813
8056.693415	0.241322	0.298092	1004.985840
8056.694317	0.486918	0.298092	1444.185547
8056.695257	0.099672	0.298092	1537.876831
8056.696162	0.101459	0.298092	1629.697021
8056.697050	0.102389	0.298092	1720.618408
8056.697983	0.100924	0.298092	1814.780518
8056.698900	0.099957	0.298092	1906.441284
8056.699797	0.101869	0.298092	1997.817627
8056.700684	0.102158	0.298092	2088.431885
8056.701629	0.099382	0.298092	2182.348145
8056.702543	0.099789	0.298092	2273.555176
8056.703447	0.100942	0.298092	2364.807129
8057.680846	0.704011	0.311534	309.060913
8057.681741	0.254985	0.311534	537.272766
8057.682728	0.249166	0.311534	783.199890
8057.683636	0.241604	0.311534	1002.576355
8057.684538	0.498801	0.311534	1452.495117
8057.685474	0.099602	0.311534	1545.722656
8057.686388	0.101444	0.311534	1638.442505
8057.687308	0.101580	0.311534	1731.895752
8057.688195	0.101444	0.311534	1821.876709
8057.689143	0.100247	0.311534	1916.910522
8057.690045	0.102114	0.311534	2009.017578
8057.690969	0.101235	0.311534	2102.559082
8057.691857	0.101396	0.311534	2192.599121
8057.692816	0.100792	0.311534	2289.258789
8057.693718	0.102041	0.311534	2381.299805
8058.725324	0.705088	0.298648	307.418335
8058.726244	0.255256	0.298648	542.254150
8058.727147	0.249913	0.298648	767.925903
8058.728086	0.241853	0.298648	995.025879
8058.729001	0.493418	0.298648	1446.503296
8058.729903	0.102382	0.298648	1538.851440
8058.730794	0.100822	0.298648	1628.683472
8058.731738	0.100126	0.298648	1723.202148
8058.732635	0.100558	0.298648	1813.402588
8058.733533	0.102129	0.298648	1905.114380
8058.734465	0.100298	0.298648	1998.592041
8058.735372	0.099500	0.298648	2088.838135
8058.736267	0.101202	0.298648	2179.414307
8058.737156	0.101093	0.298648	2269.285645
8058.738099	0.099309	0.298648	2362.934082
8059.716085	0.632827	0.311353	297.428741
8059.716995	0.255026	0.311353	529.502075
8059.717932	0.248800	0.311353	762.627747
8059.718828	0.241293	0.311353	978.826050
8059.719784	0.465128	0.311353	1423.488525
8059.720702	0.100214	0.311353	1515.484619
8059.721606	0.101697	0.311353	1607.418457
8059.722548	0.102711	0.311353	1704.172363
8059.723460	0.101118	0.311353	1796.392090
8059.724379	0.102488	0.311353	1890.578369
8059.725269	0.102103	0.311353	1981.450317
8059.726220	0.101298	0.311353	2077.784424
8059.727141	0.102144	0.311353	2171.858643
8059.728035	0.102275	0.311353	2263.292969
8059.728955	0.101656	0.311353	2356.816895
8060.760008	0.710728	0.298926	308.455750
8060.760953	0.255304	0.298926	549.718018
8060.761877	0.249375	0.298926	780.140503
8060.762787	0.241772	0.298926	1000.153442
8060.763691	0.495007	0.298926	1447.640015
8060.764654	0.099419	0.298926	1543.380493
8060.765551	0.100602	0.298926	1633.620361
8060.766450	0.103213	0.298926	1726.408691
8060.767338	0.101104	0.298926	1816.188599
8060.768283	0.099738	0.298926	1910.440552
8060.769185	0.100492	0.298926	2001.084229
8060.770082	0.101964	0.298926	2092.546143
8060.771016	0.100012	0.298926	2185.957520
8060.771923	0.099554	0.298926	2276.253418
8060.772825	0.101484	0.298926	2367.792236
8061.752282	0.678607	0.306841	304.694611
8061.753185	0.255139	0.306841	535.085266
8061.754084	0.249580	0.306841	759.457764
8061.755026	0.241860	0.306841	987.290222
8061.755963	0.477070	0.306841	1434.305176
8061.756867	0.100737	0.306841	1525.371704
8061.757754	0.102546	0.306841	1616.330322
8061.758706	0.100818	0.306841	1712.308960
8061.759608	0.103685	0.306841	1805.833130
8061.760524	0.102784	0.306841	1899.983643
8061.761409	0.101744	0.306841	1990.027466
8061.762343	0.101444	0.306841	2084.776367
8061.763254	0.102495	0.306841	2178.149414
8061.764146	0.101997	0.306841	2269.130859
8061.765082	0.099961	0.306841	2362.694336
8062.794714	0.673663	0.294108	299.106506
8062.795638	0.255388	0.294108	535.085205
8062.796549	0.249712	0.294108	762.572754
8062.797489	0.241611	0.294108	989.687378
8062.798413	0.490964	0.294108	1443.338379
8062.799308	0.101396	0.294108	1534.088257
8062.800196	0.101788	0.294108	1624.476318
8062.801155	0.100074	0.294108	1720.447754
8062.802061	0.100298	0.294108	1811.317627
8062.802966	0.101869	0.294108	1903.509033
8062.803860	0.100554	0.294108	1993.404541
8062.804789	0.099518	0.294108	2085.856689
8062.805699	0.100485	0.294108	2177.297607
8062.806595	0.102678	0.294108	2269.297363
8062.807532	0.100170	0.294108	2363.156250
8063.788497	0.700375	0.305548	312.367126
8063.789405	0.255216	0.305548	544.103333
8063.790302	0.249833	0.305548	768.203308
8063.791261	0.241670	0.305548	999.964783
8063.792185	0.486244	0.305548	1449.254150
8063.793074	0.101298	0.305548	1539.307739
8063.794023	0.102041	0.305548	1636.144653
8063.794921	0.100360	0.305548	1726.268066
8063.795823	0.102363	0.305548	1818.599731
8063.796718	0.102495	0.305548	1910.332886
8063.797650	0.099939	0.305548	2003.475952
8063.798549	0.100408	0.305548	2093.742432
8063.799453	0.101979	0.305548	2185.931152
8063.800343	0.101638	0.305548	2276.389160
8063.801287	0.099309	0.305548	2370.136963
8064.830469	0.729803	0.294599	364.171906
8064.831391	0.255754	0.294599	599.977478
8064.832312	0.248690	0.294599	829.021118
8064.833220	0.241597	0.294599	1048.390869
8064.834173	0.484896	0.294599	1510.496948
8064.835075	0.100188	0.294599	1600.866455
8064.835980	0.102224	0.294599	1693.379272
8064.836869	0.101191	0.294599	1783.338379
8064.837806	0.100096	0.294599	1877.128784
8064.838711	0.100543	0.294599	1968.120361
8064.839606	0.102686	0.294599	2060.023926
8064.840552	0.101001	0.294599	2155.570801
8064.841447	0.099631	0.294599	2244.740967
8064.842350	0.100957	0.294599	2335.905273
8064.843240	0.102100	0.294599	2426.773926
8065.822174	0.659641	0.307530	301.455994
8065.823074	0.255374	0.307530	531.292175
8065.824027	0.249229	0.307530	768.806946
8065.824935	0.241655	0.307530	988.229919
8065.825843	0.497490	0.307530	1439.951050
8065.826727	0.101074	0.307530	1529.300659
8065.827679	0.100356	0.307530	1624.839966
8065.828579	0.101415	0.307530	1716.113281
8065.829474	0.103136	0.307530	1808.419922
8065.830417	0.100569	0.307530	1903.256348
8065.831332	0.099778	0.307530	1994.553101
8065.832234	0.102147	0.307530	2086.689941
8065.833121	0.102111	0.307530	2177.261963
8065.834120	0.099218	0.307530	2276.380371
8065.835016	0.099558	0.307530	2365.584473
8066.866640	0.714913	0.297661	313.846954
8066.867605	0.255245	0.297661	560.158691
8066.868522	0.248562	0.297661	788.090088
8066.869422	0.241355	0.297661	1005.309570
8066.870371	0.487375	0.297661	1467.828857
8066.871273	0.099155	0.297661	1557.266968
8066.872169	0.101913	0.297661	1648.580811
8066.873055	0.102224	0.297661	1739.151367
8066.873988	0.100247	0.297661	1832.681396
8066.874896	0.100668	0.297661	1924.087646
8066.875801	0.102074	0.297661	2016.464600
8066.876690	0.100942	0.297661	2106.202393
8066.877636	0.099921	0.297661	2200.727295
8066.878540	0.101418	0.297661	2292.409668
8066.879432	0.101510	0.297661	2382.956543
8067.856333	0.733279	0.308295	321.176117
8067.857275	0.255286	0.308295	561.655212
8067.858184	0.249207	0.308295	788.183960
8067.859099	0.241454	0.308295	1009.114258
8067.859997	0.395028	0.308295	1363.849487
8067.860958	0.099602	0.308295	1459.567017
8067.861873	0.101803	0.308295	1552.716797
8067.862769	0.102030	0.308295	1644.135742
8067.863706	0.100481	0.308295	1738.286377
8067.864607	0.100232	0.308295	1828.595337
8067.865504	0.103337	0.308295	1921.288940
8067.866393	0.102184	0.308295	2012.130371
8067.867330	0.099474	0.308295	2105.337402
8067.868231	0.100052	0.308295	2195.484619
8067.869134	0.101777	0.308295	2287.389648
8068.902857	0.724252	0.293737	317.222229
8068.903837	0.255776	0.293737	567.883057
8068.904753	0.248965	0.293737	795.934814
8068.905656	0.241677	0.293737	1014.169373
8068.906561	0.405344	0.293737	1381.005859
8068.907520	0.099558	0.293737	1476.482056
8068.908432	0.101884	0.293737	1569.399902
8068.909332	0.103246	0.293737	1662.321167
8068.910266	0.100800	0.293737	1756.468018
8068.911167	0.100214	0.293737	1846.760498
8068.912073	0.101982	0.293737	1939.156616
8068.912965	0.101927	0.293737	2030.075928
8068.913910	0.099580	0.293737	2124.179199
8068.914807	0.100492	0.293737	2214.320557
8068.915700	0.101715	0.293737	2305.152100
8069.892059	0.701151	0.306918	314.115723
8069.892954	0.255260	0.306918	542.573425
8069.893929	0.249309	0.306918	785.649780
8069.894835	0.241652	0.306918	1004.586121
8069.895743	0.498834	0.306918	1457.527588
8069.896677	0.100181	0.306918	1551.096313
8069.897586	0.100239	0.306918	1642.213745
8069.898486	0.102334	0.306918	1734.314331
8069.899372	0.101997	0.306918	1824.683716
8069.900320	0.099800	0.306918	1919.293945
8069.901221	0.099895	0.306918	2009.299316
8069.902120	0.102444	0.306918	2101.396240
8069.903007	0.100719	0.306918	2190.733887
8069.903957	0.099423	0.306918	2285.185303
8069.904858	0.100558	0.306918	2375.787842
8070.938581	0.700913	0.296819	310.504486
8070.939478	0.255326	0.296819	539.531860
8070.940438	0.249247	0.296819	778.808838
8070.941354	0.241824	0.296819	1000.319397
8070.942255	0.498929	0.296819	1449.854858
8070.943180	0.100232	0.296819	1542.569458
8070.944097	0.100426	0.296819	1634.660156
8070.945005	0.102367	0.296819	1727.609375
8070.945901	0.102532	0.296819	1819.477783
8070.946823	0.100280	0.296819	1911.935547
8070.947721	0.100631	0.296819	2002.302246
8070.948618	0.101576	0.296819	2093.415771
8070.949505	0.100254	0.296819	2182.341064
8070.950447	0.099521	0.296819	2276.090332
8070.951346	0.100404	0.296819	2366.353516
8071.927245	0.696171	0.309327	306.315063
8071.928164	0.255344	0.309327	540.976440
8071.929070	0.249606	0.309327	767.119202
8071.930003	0.241846	0.309327	992.761230
8071.930921	0.495341	0.309327	1447.483887
8071.931820	0.101294	0.309327	1538.547119
8071.932710	0.101960	0.309327	1629.291870
8071.933662	0.100140	0.309327	1724.625488
8071.934567	0.100975	0.309327	1816.008179
8071.935458	0.102319	0.309327	1907.174683
8071.936375	0.101188	0.309327	1999.963867
8071.937302	0.099525	0.309327	2092.223633
8071.938207	0.101960	0.309327	2184.497803
8071.939103	0.101144	0.309327	2275.122559
8071.940037	0.099613	0.309327	2368.161133
8072.974306	0.650563	0.297927	294.704926
8072.975208	0.255718	0.297927	525.362366
8072.976099	0.249972	0.297927	748.087341
8072.977066	0.241721	0.297927	981.831726
8072.977989	0.489434	0.297927	1433.578857
8072.978874	0.103026	0.297927	1524.756958
8072.979798	0.100551	0.297927	1617.665649
8072.980711	0.100393	0.297927	1709.324463
8072.981619	0.102997	0.297927	1802.845581
8072.982510	0.101583	0.297927	1893.356201
8072.983459	0.099829	0.297927	1988.093994
8072.984362	0.100239	0.297927	2078.610107
8072.985263	0.102198	0.297927	2170.690918
8072.986156	0.100470	0.297927	2260.410645
8072.987091	0.099199	0.297927	2353.161865
8073.963007	0.735963	0.307357	362.093872
8073.963918	0.255568	0.307357	594.915955
8073.964830	0.248796	0.307357	821.818237
8073.965727	0.241421	0.307357	1038.372803
8073.966698	0.484387	0.307357	1508.712769
8073.967599	0.099939	0.307357	1598.757812
8073.968505	0.102030	0.307357	1691.197021
8073.969395	0.100990	0.307357	1781.078125
8073.970330	0.099913	0.307357	1874.497070
8073.971240	0.101008	0.307357	1966.414673
8073.972129	0.102034	0.307357	2057.122559
8073.973067	0.100012	0.307357	2150.934082
8073.973972	0.099573	0.307357	2241.047363
8073.974874	0.102502	0.307357	2333.504639
8073.975765	0.101129	0.307357	2423.610596
8075.007446	0.691710	0.298531	307.119354
8075.008358	0.254725	0.298531	539.428894
8075.009255	0.249470	0.298531	763.203674
8075.010198	0.241527	0.298531	990.963745
8075.011133	0.497179	0.298531	1455.826050
8075.012032	0.101235	0.298531	1546.836670
8075.012923	0.101583	0.298531	1637.347412
8075.013879	0.100225	0.298531	1733.162109
8075.014779	0.103228	0.298531	1826.066895
8075.015668	0.102631	0.298531	1917.305542
8075.016599	0.100294	0.298531	2010.679443
8075.017505	0.100745	0.298531	2101.954102
8075.018409	0.101671	0.298531	2193.864746
8075.019298	0.101338	0.298531	2283.954102
8075.020237	0.099177	0.298531	2377.081543
8076.001737	0.720725	0.311236	312.794708
8076.002680	0.255374	0.311236	553.611938
8076.003610	0.249313	0.311236	785.472778
8076.004529	0.241674	0.311236	1007.570801
8076.005438	0.478359	0.311236	1442.399414
8076.006377	0.099434	0.311236	1535.767578
8076.007278	0.100481	0.311236	1626.300903
8076.008175	0.103623	0.311236	1719.250732
8076.009063	0.101169	0.311236	1809.089233
8076.010021	0.100049	0.311236	1904.936035
8076.010923	0.101111	0.311236	1996.138062
8076.011815	0.101715	0.311236	2086.867920
8076.012740	0.100360	0.311236	2179.700928
8076.013645	0.099785	0.311236	2270.006592
8076.014550	0.100939	0.311236	2361.356201
8077.039560	0.706868	0.297846	308.194305
8077.040506	0.255458	0.297846	549.857361
8077.041443	0.249181	0.297846	783.339844
8077.042362	0.241736	0.297846	1005.495117
8077.043264	0.456101	0.297846	1416.898315
8077.044215	0.100499	0.297846	1512.473145
8077.045110	0.102404	0.297846	1604.124390
8077.046001	0.102946	0.297846	1695.848877
8077.046939	0.100748	0.297846	1790.350830
8077.047850	0.102169	0.297846	1883.427002
8077.048774	0.102316	0.297846	1977.966675
8077.049672	0.101554	0.297846	2069.162109
8077.050621	0.100031	0.297846	2164.091064
8077.051527	0.101393	0.297846	2255.952881
8077.052453	0.102279	0.297846	2350.663330
8078.042053	0.719597	0.306422	313.744354
8078.043011	0.255934	0.306422	558.928955
8078.043944	0.249016	0.306422	791.260986
8078.044855	0.241747	0.306422	1011.492310
8078.045789	0.425706	0.306422	1409.101318
8078.046708	0.099635	0.306422	1500.665894
8078.047617	0.102704	0.306422	1594.023682
8078.048509	0.101891	0.306422	1684.910400
8078.049443	0.100118	0.306422	1778.421021
8078.050339	0.100111	0.306422	1868.120605
8078.051238	0.101265	0.306422	1959.157471
8078.052123	0.101407	0.306422	2048.903076
8078.053066	0.099225	0.306422	2142.472168
8078.053967	0.099928	0.306422	2232.507324
8078.054869	0.101755	0.306422	2324.290771
8079.071179	0.705117	0.301846	310.956696
8079.072075	0.255059	0.301846	539.489197
8079.073035	0.249547	0.301846	779.054443
8079.073960	0.241740	0.301846	1002.663513
8079.074864	0.492173	0.301846	1447.587769
8079.075805	0.100126	0.301846	1541.806030
8079.076703	0.100356	0.301846	1631.926147
8079.077606	0.103660	0.301846	1725.530884
8079.078496	0.102363	0.301846	1816.634155
8079.079439	0.100027	0.301846	1910.959473
8079.080351	0.100492	0.301846	2002.608154
8079.081255	0.101199	0.301846	2094.091797
8079.082148	0.100704	0.301846	2184.020752
8079.083088	0.099207	0.301846	2277.274902
8079.084002	0.100990	0.301846	2369.579834
8080.081868	0.719901	0.309512	315.316681
8080.082818	0.255377	0.309512	557.924988
8080.083741	0.249042	0.309512	787.790527
8080.084646	0.241454	0.309512	1006.306274
8080.085582	0.470057	0.309512	1446.279907
8080.086496	0.099272	0.309512	1537.014893
8080.087402	0.101210	0.309512	1628.710937
8080.088297	0.101459	0.309512	1719.516479
8080.089234	0.100415	0.309512	1813.605347
8080.090145	0.100320	0.309512	1904.996704
8080.091040	0.101759	0.309512	1996.071045
8080.091930	0.101147	0.309512	2086.092285
8080.092864	0.099635	0.309512	2179.151367
8080.093773	0.100660	0.309512	2270.651611
8080.094668	0.102136	0.309512	2362.063477
8081.102346	0.722999	0.309766	362.222626
8081.103254	0.255388	0.309766	594.115112
8081.104162	0.248606	0.309766	819.849365
8081.105057	0.241348	0.309766	1035.855469
8081.106009	0.488060	0.309766	1500.488770
8081.106918	0.100459	0.309766	1591.806030
8081.107829	0.102056	0.309766	1684.778687
8081.108718	0.100620	0.309766	1774.229980
8081.109660	0.099994	0.309766	1868.424194
8081.110568	0.101638	0.309766	1960.711670
8081.111460	0.102572	0.309766	2052.205811
8081.112395	0.100082	0.309766	2145.782227
8081.113296	0.099719	0.309766	2235.629150
8081.114198	0.103180	0.309766	2328.697510
8081.115087	0.101803	0.309766	2419.200439
8082.121173	0.720604	0.304436	322.110107
8082.122076	0.255406	0.304436	552.742187
8082.123034	0.249580	0.304436	791.839905
8082.123950	0.241542	0.304436	1013.092163
8082.124853	0.492671	0.304436	1457.973999
8082.125780	0.100353	0.304436	1551.000977
8082.126692	0.100521	0.304436	1642.676392
8082.127587	0.102858	0.304436	1734.734009
8082.128478	0.102682	0.304436	1826.223511
8082.129411	0.100140	0.304436	1919.654541
8082.130323	0.100869	0.304436	2011.647217
8082.131224	0.103173	0.304436	2104.605713
8082.132111	0.101525	0.304436	2194.658203
8082.133058	0.099430	0.304436	2288.818359
8082.133958	0.101796	0.304436	2380.434570
8083.133388	0.705428	0.314036	310.388519
8083.134287	0.255396	0.314036	539.989075
8083.135213	0.249946	0.314036	771.439331
8083.136132	0.241846	0.314036	993.695557
8083.137052	0.489661	0.314036	1444.183350
8083.137939	0.102319	0.314036	1534.940552
8083.138875	0.100360	0.314036	1628.877563
8083.139777	0.100334	0.314036	1719.379272
8083.140674	0.102642	0.314036	1811.448730
8083.141564	0.101909	0.314036	1902.147949
8083.142521	0.099869	0.314036	1997.722900
8083.143430	0.100426	0.314036	2089.010254
8083.144338	0.102078	0.314036	2181.696777
8083.145258	0.100939	0.314036	2274.560303
8083.146163	0.099496	0.314036	2364.604004
8084.158419	0.714518	0.300384	316.531403
8084.159312	0.254960	0.300384	544.210449
8084.160296	0.248730	0.300384	788.961243
8084.161194	0.241567	0.300384	1005.888794
8084.162129	0.496238	0.300384	1469.871094
8084.163019	0.100975	0.300384	1559.739136
8084.163972	0.101759	0.300384	1656.715454
8084.164891	0.101327	0.300384	1749.834839
8084.165779	0.101656	0.300384	1840.105835
8084.166724	0.101001	0.300384	1935.551758
8084.167622	0.101558	0.300384	2026.750488
8084.168541	0.101224	0.300384	2119.775635
8084.169432	0.101909	0.300384	2210.576660
8084.170386	0.101202	0.300384	2307.123779
8084.171285	0.100745	0.300384	2397.693115
8085.166030	0.691084	0.314886	304.768036
8085.166950	0.255516	0.314886	539.843079
8085.167855	0.249943	0.314886	766.041138
8085.168808	0.241692	0.314886	996.373535
8085.169733	0.498065	0.314886	1457.083862
8085.170630	0.101279	0.314886	1547.931396
8085.171520	0.102338	0.314886	1639.011963
8085.172468	0.099917	0.314886	1733.733276
8085.173382	0.101854	0.314886	1826.828003
8085.174282	0.102620	0.314886	1919.185669
8085.175219	0.101199	0.314886	2014.008911
8085.176121	0.099719	0.314886	2103.955566
8085.177020	0.103586	0.314886	2197.079834
8085.177909	0.101711	0.314886	2287.501221
8085.178856	0.099573	0.314886	2381.796631
8086.195694	0.604541	0.295417	283.529724
8086.196618	0.255531	0.295417	519.640381
8086.197528	0.249196	0.295417	746.408325
8086.198465	0.241937	0.295417	973.103516
8086.199389	0.482900	0.295417	1419.303467
8086.200295	0.101481	0.295417	1511.244995
8086.201185	0.102004	0.295417	1602.028931
8086.202128	0.099972	0.295417	1696.302490
8086.203024	0.100646	0.295417	1786.481079
8086.203925	0.101810	0.295417	1878.212158
8086.204811	0.100851	0.295417	1967.566040
8086.205758	0.099481	0.295417	2061.774658
8086.206667	0.100580	0.295417	2153.201660
8086.207565	0.102495	0.295417	2245.242187
8086.208495	0.099998	0.295417	2338.239990
8087.201229	0.715433	0.313093	318.367859
8087.202199	0.255392	0.313093	566.097961
8087.203122	0.248452	0.313093	795.419312
8087.204017	0.241285	0.313093	1011.369751
8087.204985	0.439933	0.313093	1437.224731
8087.205891	0.099104	0.313093	1527.012939
8087.206794	0.101631	0.313093	1618.785645
8087.207683	0.102418	0.313093	1709.835449
8087.208619	0.100052	0.313093	1803.484619
8087.209528	0.100316	0.313093	1894.671997
8087.210431	0.101635	0.313093	1986.447998
8087.211315	0.102001	0.313093	2076.616699
8087.212260	0.099657	0.313093	2170.792480
8087.213170	0.100906	0.313093	2262.616699
8087.214059	0.101649	0.313093	2352.982910
8088.232927	0.667101	0.293520	302.196686
8088.233826	0.255212	0.293520	531.632629
8088.234765	0.249551	0.293520	765.960815
8088.235682	0.241611	0.293520	987.518433
8088.236604	0.487866	0.293520	1437.331055
8088.237488	0.101917	0.293520	1527.425293
8088.238431	0.100342	0.293520	1622.047607
8088.239342	0.100719	0.293520	1713.802612
8088.240242	0.101686	0.293520	1805.319824
8088.241133	0.101536	0.293520	1895.788086
8088.242079	0.099921	0.293520	1990.312988
8088.242986	0.100448	0.293520	2081.419434
8088.243887	0.101865	0.293520	2173.199951
8088.244816	0.100880	0.293520	2266.917480
8088.245716	0.099576	0.293520	2356.536133
8089.237479	0.626851	0.311099	290.231812
8089.238383	0.255267	0.311099	520.993469
8089.239329	0.248947	0.311099	756.496887
8089.240251	0.241512	0.311099	979.171387
8089.241181	0.488295	0.311099	1433.285400
8089.242068	0.100902	0.311099	1522.785522
8089.243038	0.102722	0.311099	1622.426025
8089.243931	0.102949	0.311099	1714.359619
8089.244820	0.104268	0.311099	1807.053467
8089.245761	0.100602	0.311099	1901.719727
8089.246661	0.102286	0.311099	1993.777466
8089.247581	0.101887	0.311099	2087.513672
8089.248484	0.102111	0.311099	2179.719482
8089.249415	0.100525	0.311099	2273.308105
8089.250324	0.100562	0.311099	2364.718506
8090.268173	0.662977	0.296730	335.466522
8090.269088	0.255396	0.296730	569.153442
8090.269987	0.248694	0.296730	792.729248
8090.270885	0.241443	0.296730	1009.544922
8090.271838	0.494886	0.296730	1481.171753
8090.272753	0.100107	0.296730	1572.770020
8090.273646	0.102118	0.296730	1663.961304
8090.274570	0.101162	0.296730	1757.435059
8090.275473	0.100126	0.296730	1847.848633
8090.276381	0.102136	0.296730	1940.588379
8090.277269	0.103070	0.296730	2032.114624
8090.278209	0.100287	0.296730	2126.384277
8090.279106	0.100001	0.296730	2216.085449
8090.280005	0.101323	0.296730	2307.175049
8090.280898	0.101290	0.296730	2397.627197
8091.273164	0.733297	0.312223	318.984283
8091.274064	0.255414	0.312223	548.856689
8091.275014	0.249829	0.312223	786.194336
8091.275931	0.241857	0.312223	1007.976929
8091.276842	0.499636	0.312223	1463.145508
8091.277751	0.101422	0.312223	1555.338257
8091.278670	0.100397	0.312223	1647.602905
8091.279585	0.101898	0.312223	1740.839722
8091.280473	0.102151	0.312223	1831.549683
8091.281408	0.100580	0.312223	1925.591797
8091.282307	0.099789	0.312223	2015.302002
8091.283205	0.102034	0.312223	2106.928223
8091.284099	0.101700	0.312223	2197.848389
8091.285046	0.099397	0.312223	2291.977295
8091.285955	0.100225	0.312223	2383.081543
8092.301796	0.677607	0.296730	306.956146
8092.302719	0.255099	0.296730	542.412415
8092.303612	0.249404	0.296730	765.130432
8092.304564	0.241644	0.296730	995.175781
8092.305492	0.488163	0.296730	1448.190918
8092.306397	0.101700	0.296730	1540.229858
8092.307288	0.101532	0.296730	1630.694824
8092.308238	0.100353	0.296730	1726.030029
8092.309133	0.101521	0.296730	1816.891357
8092.310033	0.102645	0.296730	1909.272095
8092.310939	0.101089	0.296730	2000.858643
8092.311865	0.100001	0.296730	2093.459717
8092.312779	0.103026	0.296730	2187.625488
8092.313668	0.102367	0.296730	2278.629639
8092.314602	0.099789	0.296730	2371.832275
8093.309402	0.664812	0.310833	298.500610
8093.310304	0.255366	0.310833	528.840942
8093.311260	0.249258	0.310833	767.131409
8093.312171	0.241652	0.310833	987.276001
8093.313085	0.500779	0.310833	1444.987915
8093.313970	0.101569	0.310833	1534.876099
8093.314912	0.100298	0.310833	1629.356689
8093.315822	0.100935	0.310833	1721.207642
8093.316724	0.101682	0.310833	1812.924927
8093.317658	0.101034	0.310833	1907.290649
8093.318569	0.099558	0.310833	1997.988037
8093.319459	0.101422	0.310833	2088.253662
8093.320349	0.101140	0.310833	2178.268311
8093.321286	0.099551	0.310833	2271.547363
8093.322201	0.099562	0.310833	2362.646484
8094.338049	0.721589	0.293487	355.021942
8094.338974	0.255509	0.293487	591.367798
8094.339878	0.248895	0.293487	816.369141
8094.340803	0.241458	0.293487	1039.717285
8094.341722	0.487690	0.293487	1487.904785
8094.342638	0.101122	0.293487	1580.532349
8094.343528	0.101942	0.293487	1671.260864
8094.344464	0.100466	0.293487	1765.297363
8094.345363	0.100397	0.293487	1855.554077
8094.346266	0.102913	0.293487	1948.484131
8094.347158	0.101360	0.293487	2038.897095
8094.348093	0.099822	0.293487	2132.230469
8094.348999	0.100792	0.293487	2223.548340
8094.349895	0.102114	0.293487	2315.042725
8094.350822	0.100774	0.293487	2408.460205
8095.344609	0.687015	0.312590	309.843933
8095.345526	0.255161	0.312590	543.826660
8095.346433	0.249386	0.312590	770.019775
8095.347359	0.241421	0.312590	993.575562
8095.348296	0.498614	0.312590	1460.777344
8095.349197	0.102070	0.312590	1552.742676
8095.350090	0.102334	0.312590	1644.126953
8095.351017	0.100796	0.312590	1737.564697
8095.351921	0.100371	0.312590	1828.300171
8095.352819	0.104150	0.312590	1921.827271
8095.353705	0.101700	0.312590	2011.933838
8095.354657	0.099697	0.312590	2106.845703
8095.355556	0.100756	0.312590	2197.425049
8095.356453	0.101378	0.312590	2288.361328
8095.357375	0.100481	0.312590	2381.004883
8096.373231	0.716180	0.296404	339.469543
8096.374136	0.255194	0.296404	570.420166
8096.375106	0.248800	0.296404	811.756226
8096.376017	0.241219	0.296404	1031.507202
8096.376938	0.473295	0.296404	1467.411621
8096.377834	0.100928	0.296404	1557.842896
8096.378771	0.101250	0.296404	1652.714111
8096.379677	0.102070	0.296404	1745.189819
8096.380570	0.102587	0.296404	1836.799683
8096.381498	0.100884	0.296404	1930.419800
8096.382409	0.101532	0.296404	2022.915405
8096.383304	0.101389	0.296404	2113.658691
8096.384194	0.102323	0.296404	2204.726074
8096.385134	0.100001	0.296404	2298.727295
8096.386034	0.100613	0.296404	2389.278809
8097.379281	0.734857	0.315587	325.541718
8097.380175	0.255132	0.315587	553.629578
8097.381123	0.249397	0.315587	790.057922
8097.382045	0.241685	0.315587	1012.891113
8097.382955	0.503668	0.315587	1471.229126
8097.383877	0.100239	0.315587	1563.649658
8097.384790	0.100089	0.315587	1655.031006
8097.385700	0.101605	0.315587	1747.491821
8097.386599	0.102169	0.315587	1839.341919
8097.387552	0.099847	0.315587	1934.496460
8097.388455	0.099811	0.315587	2024.625610
8097.389357	0.101202	0.315587	2115.910156
8097.390241	0.100789	0.315587	2205.007324
8097.391172	0.099397	0.315587	2297.545898
8097.392081	0.100470	0.315587	2388.873047
8098.407892	0.701093	0.295409	313.388367
8098.408868	0.255941	0.295409	563.186951
8098.409774	0.249163	0.295409	788.928223
8098.410702	0.241707	0.295409	1013.231873
8098.411604	0.410658	0.295409	1383.645386
8098.412542	0.101799	0.295409	1479.133179
8098.413465	0.101257	0.295409	1572.593750
8098.414359	0.102689	0.295409	1664.397949
8098.415299	0.101598	0.295409	1759.900024
8098.416209	0.102187	0.295409	1852.890625
8098.417127	0.101635	0.295409	1946.191162
8098.418019	0.101364	0.295409	2036.607422
8098.418973	0.100701	0.295409	2132.675781
8098.419891	0.100792	0.295409	2225.203125
8098.420782	0.101184	0.295409	2315.358154
8099.414021	0.592419	0.316417	293.840057
8099.414938	0.255677	0.316417	528.296326
8099.415845	0.249265	0.316417	754.379822
8099.416740	0.241747	0.316417	970.743225
8099.417695	0.475584	0.316417	1424.925537
8099.418609	0.099979	0.316417	1516.306519
8099.419507	0.101060	0.316417	1607.057983
8099.420437	0.100404	0.316417	1700.433716
8099.421340	0.099921	0.316417	1790.662109
8099.422248	0.102023	0.316417	1883.298706
8099.423137	0.101312	0.316417	1973.365356
8099.424086	0.099609	0.316417	2067.894531
8099.424986	0.099694	0.316417	2157.618652
8099.425884	0.101477	0.316417	2248.745117
8099.426769	0.100477	0.316417	2337.667480
8100.443650	0.730096	0.296686	360.667633
8100.444572	0.255278	0.296686	596.034241
8100.445478	0.248613	0.296686	821.277893
8100.446374	0.241274	0.296686	1037.459717
8100.447347	0.487665	0.296686	1511.957520
8100.448254	0.100653	0.296686	1603.249878
8100.449149	0.102297	0.296686	1694.806030
8100.450039	0.101093	0.296686	1784.778320
8100.450978	0.100005	0.296686	1878.682861
8100.451890	0.101188	0.296686	1970.966064
8100.452786	0.102638	0.296686	2062.929687
8100.453721	0.099906	0.296686	2156.341797
8100.454628	0.099316	0.296686	2246.421875
8100.455540	0.102382	0.296686	2339.793945
8100.456438	0.101012	0.296686	2430.502686
8101.449160	0.728507	0.317279	316.900604
8101.450091	0.255421	0.317279	554.697693
8101.451038	0.249390	0.317279	790.869690
8101.451960	0.241710	0.317279	1013.726501
8101.452871	0.476422	0.317279	1447.747070
8101.453809	0.099298	0.317279	1540.888672
8101.454708	0.100305	0.317279	1631.062988
8101.455611	0.103044	0.317279	1724.112061
8101.456499	0.101378	0.317279	1814.135864
8101.457452	0.099785	0.317279	1909.231079
8101.458346	0.100302	0.317279	1998.900635
8101.459244	0.102224	0.317279	2090.697998
8101.460176	0.100027	0.317279	2183.923096
8101.461085	0.099580	0.317279	2274.441406
8101.461977	0.101045	0.317279	2364.573486
8102.478801	0.719154	0.301234	317.866089
8102.479694	0.255366	0.301234	545.908081
8102.480638	0.249803	0.301234	781.722534
8102.481561	0.241868	0.301234	1004.966431
8102.482474	0.495963	0.301234	1457.780762
8102.483411	0.099829	0.301234	1551.320679
8102.484317	0.100122	0.301234	1642.031250
8102.485215	0.102286	0.301234	1733.884399
8102.486106	0.102799	0.301234	1825.478394
8102.487059	0.099803	0.301234	1920.591064
8102.487963	0.100085	0.301234	2011.068359
8102.488858	0.101378	0.301234	2101.801758
8102.489745	0.101345	0.301234	2191.695068
8102.490690	0.099536	0.301234	2285.756836
8102.491599	0.099943	0.301234	2376.604736
8103.484432	0.593683	0.319124	302.778229
8103.485352	0.255333	0.319124	537.684814
8103.486287	0.248368	0.319124	769.908813
8103.487180	0.241381	0.319124	985.461670
8103.488146	0.453076	0.319124	1423.133301
8103.489039	0.100994	0.319124	1513.320679
8103.489927	0.104619	0.319124	1606.222534
8103.490868	0.101158	0.319124	1701.412598
8103.491772	0.100950	0.319124	1792.671143
8103.492696	0.103041	0.319124	1887.880859
8103.493583	0.102488	0.319124	1978.787598
8103.494565	0.100045	0.319124	2077.031982
8103.495479	0.101569	0.319124	2169.865723
8103.496399	0.102448	0.319124	2264.117432
8103.497286	0.100631	0.319124	2353.377197
8104.512459	0.704714	0.304497	310.779022
8104.513430	0.255084	0.304497	558.465820
8104.514340	0.248870	0.304497	784.937195
8104.515243	0.241403	0.304497	1002.923706
8104.516147	0.499896	0.304497	1454.829956
8104.517081	0.099181	0.304497	1547.464966
8104.517993	0.100924	0.304497	1639.507690
8104.518893	0.102495	0.304497	1731.753296
8104.519813	0.100785	0.304497	1824.475464
8104.520735	0.099598	0.304497	1916.305176
8104.521641	0.102008	0.304497	2008.724487
8104.522531	0.101320	0.304497	2098.898926
8104.523469	0.099408	0.304497	2192.143555
8104.524362	0.099543	0.304497	2281.035889
8104.525268	0.103202	0.304497	2374.536865
8105.520605	0.673433	0.316159	301.697815
8105.521520	0.255359	0.316159	535.351196
8105.522425	0.249569	0.316159	761.211243
8105.523375	0.241736	0.316159	990.860291
8105.524302	0.491360	0.316159	1446.350952
8105.525204	0.100814	0.316159	1537.285400
8105.526094	0.102158	0.316159	1628.206177
8105.527039	0.100312	0.316159	1723.001465
8105.527946	0.100726	0.316159	1814.360229
8105.528845	0.101730	0.316159	1905.815308
8105.529785	0.100986	0.316159	2000.742432
8105.530675	0.099800	0.316159	2089.564209
8105.531573	0.102733	0.316159	2181.818604
8105.532463	0.101396	0.316159	2272.061523
8105.533393	0.099423	0.316159	2364.524658
8106.546681	0.716027	0.302773	348.704956
8106.547617	0.255513	0.302773	587.864868
8106.548530	0.248328	0.302773	814.588013
8106.549425	0.241666	0.302773	1030.879272
8106.550377	0.486658	0.302773	1494.177490
8106.551284	0.101049	0.302773	1585.828613
8106.552188	0.103184	0.302773	1679.106567
8106.553072	0.101536	0.302773	1768.864136
8106.554024	0.099741	0.302773	1863.817749
8106.554915	0.101140	0.302773	1953.933594
8106.555802	0.101437	0.302773	2043.907959
8106.556725	0.100503	0.302773	2136.672119
8106.557637	0.099983	0.302773	2227.856445
8106.558543	0.101309	0.302773	2319.642090
8106.559433	0.102037	0.302773	2410.455322
8107.559371	0.706619	0.303739	312.325439
8107.560349	0.255802	0.303739	562.499817
8107.561265	0.248877	0.303739	790.471069
8107.562163	0.241655	0.303739	1007.477539
8107.563112	0.463528	0.303739	1447.365479
8107.564012	0.099716	0.303739	1537.109497
8107.564918	0.102979	0.303739	1630.408081
8107.565810	0.101704	0.303739	1721.128174
8107.566760	0.100144	0.303739	1816.265015
8107.567663	0.100327	0.303739	1906.860474
8107.568564	0.102155	0.303739	1998.901733
8107.569495	0.100521	0.303739	2092.487061
8107.570400	0.099196	0.303739	2182.259033
8107.571309	0.100715	0.303739	2273.809326
8107.572205	0.101349	0.303739	2364.617920
8108.579269	0.719132	0.306471	312.103333
8108.580195	0.255253	0.306471	548.467285
8108.581145	0.249283	0.306471	785.286560
8108.582057	0.241655	0.306471	1005.676147
8108.582957	0.486877	0.306471	1443.865845
8108.583899	0.099785	0.306471	1537.863525
8108.584801	0.101788	0.306471	1629.676636
8108.585721	0.101528	0.306471	1723.082642
8108.586611	0.101353	0.306471	1813.286377
8108.587573	0.100463	0.306471	1909.931396
8108.588464	0.101660	0.306471	2000.510620
8108.589355	0.102030	0.306471	2091.419434
8108.590270	0.100481	0.306471	2183.359619
8108.591195	0.101309	0.306471	2277.070068
8108.592096	0.101375	0.306471	2368.408447
8109.599727	0.596107	0.297761	279.574280
8109.600644	0.255648	0.297761	514.003662
8109.601556	0.249349	0.297761	741.410278
8109.602453	0.241670	0.297761	958.188232
8109.603424	0.491257	0.297761	1435.199097
8109.604326	0.100642	0.297761	1525.978271
8109.605223	0.102239	0.297761	1617.686401
8109.606153	0.100800	0.297761	1711.429932
8109.607059	0.099829	0.297761	1801.875122
8109.607952	0.101177	0.297761	1892.225952
8109.608839	0.101569	0.297761	1982.317261
8109.609770	0.099774	0.297761	2075.207031
8109.610679	0.100598	0.297761	2166.650635
8109.611581	0.101763	0.297761	2258.440674
8109.612472	0.101235	0.297761	2348.641357
8110.610395	0.664786	0.311043	296.494720
8110.611301	0.255220	0.311043	527.723816
8110.612194	0.249796	0.311043	750.791748
8110.613151	0.241685	0.311043	982.083862
8110.614074	0.492352	0.311043	1436.525024
8110.614964	0.101272	0.311043	1526.657104
8110.615900	0.101653	0.311043	1621.804199
8110.616808	0.100356	0.311043	1712.927856
8110.617718	0.101642	0.311043	1805.421875
8110.618616	0.101503	0.311043	1896.571289
8110.619544	0.099639	0.311043	1989.036011
8110.620442	0.099990	0.311043	2078.827148
8110.621339	0.101008	0.311043	2169.431641
8110.622228	0.101569	0.311043	2259.726074
8110.623172	0.099141	0.311043	2353.314941
8111.638984	0.724406	0.295812	315.840820
8111.639952	0.255718	0.295812	563.375610
8111.640876	0.249111	0.295812	793.554443
8111.641784	0.241641	0.295812	1012.964111
8111.642689	0.433608	0.295812	1405.379761
8111.643634	0.099602	0.295812	1499.503662
8111.644535	0.102140	0.295812	1591.531738
8111.645425	0.102656	0.295812	1682.895752
8111.646369	0.100774	0.295812	1778.026367
8111.647275	0.101019	0.295812	1869.549805
8111.648175	0.102444	0.295812	1961.749268
8111.649061	0.101807	0.295812	2051.949951
8111.649991	0.099672	0.295812	2144.644531
8111.650906	0.101810	0.295812	2237.801025
8111.651807	0.101968	0.295812	2329.674072
8112.640974	0.728727	0.311925	322.097260
8112.641869	0.254806	0.311925	550.148560
8112.642837	0.248972	0.311925	791.153625
8112.643751	0.241512	0.311925	1011.895996
8112.644660	0.498878	0.311925	1465.376221
8112.645561	0.100170	0.311925	1555.629150
8112.646479	0.100316	0.311925	1647.719360
8112.647387	0.102173	0.311925	1740.492310
8112.648279	0.102114	0.311925	1831.578247
8112.649211	0.100320	0.311925	1925.076294
8112.650113	0.099954	0.311925	2015.234497
8112.651014	0.101664	0.311925	2106.833496
8112.651903	0.101444	0.311925	2197.017334
8112.652858	0.099269	0.311925	2291.819092
8112.653765	0.100181	0.311925	2382.682861
8113.677287	0.664329	0.297214	301.605194
8113.678185	0.254996	0.297214	530.591919
8113.679079	0.249738	0.297214	753.857300
8113.680034	0.241414	0.297214	984.407288
8113.680938	0.499706	0.297214	1436.141357
8113.681856	0.101444	0.297214	1529.267090
8113.682754	0.103118	0.297214	1621.866699
8113.683700	0.101466	0.297214	1717.853638
8113.684603	0.102612	0.297214	1810.512573
8113.685494	0.102290	0.297214	1901.652954
8113.686415	0.100422	0.297214	1994.141968
8113.687336	0.101598	0.297214	2087.713623
8113.688225	0.102360	0.297214	2178.711426
8113.689113	0.101971	0.297214	2269.261963
8113.690064	0.099683	0.297214	2364.060059
8114.673115	0.673315	0.313649	303.665253
8114.674011	0.255399	0.313649	532.502930
8114.674911	0.250005	0.313649	757.507324
8114.675863	0.241747	0.313649	987.650269
8114.676783	0.489346	0.313649	1437.848267
8114.677686	0.101415	0.313649	1529.425781
8114.678572	0.101254	0.313649	1619.136475
8114.679531	0.100382	0.313649	1715.402832
8114.680434	0.102440	0.313649	1807.906372
8114.681324	0.103011	0.313649	1899.586548
8114.682265	0.101195	0.313649	1994.811157
8114.683160	0.100005	0.313649	2084.315430
8114.684049	0.101554	0.313649	2174.596924
8114.684941	0.101675	0.313649	2265.290771
8114.685874	0.099243	0.313649	2357.884766
8115.715529	0.714463	0.298833	313.649200
8115.716495	0.255275	0.298833	560.244507
8115.717409	0.248906	0.298833	787.744812
8115.718332	0.241619	0.298833	1010.758789
8115.719242	0.483812	0.298833	1451.027954
8115.720220	0.100854	0.298833	1549.663696
8115.721120	0.101960	0.298833	1641.428101
8115.722007	0.102100	0.298833	1731.990479
8115.722936	0.101184	0.298833	1825.990479
8115.723850	0.101543	0.298833	1918.800781
8115.724760	0.100338	0.298833	2010.108521
8115.725645	0.103140	0.298833	2101.387207
8115.726579	0.099584	0.298833	2194.398437
8115.727491	0.101060	0.298833	2286.564697
8115.728404	0.101895	0.298833	2379.594482
8116.706252	0.695061	0.310289	305.826843
8116.707157	0.255070	0.310289	536.664795
8116.708053	0.249891	0.310289	760.567444
8116.709019	0.241677	0.310289	994.027649
8116.709929	0.483036	0.310289	1433.590332
8116.710830	0.102202	0.310289	1525.674438
8116.711719	0.101876	0.310289	1616.242432
8116.712650	0.100302	0.310289	1709.623169
8116.713558	0.100994	0.310289	1801.325439
8116.714456	0.102041	0.310289	1892.958252
8116.715399	0.100353	0.310289	1987.590942
8116.716307	0.099807	0.310289	2078.215820
8116.717206	0.101982	0.310289	2169.897949
8116.718093	0.101851	0.310289	2260.239502
8116.719050	0.099327	0.310289	2355.295898
8117.752277	0.714814	0.300110	314.518341
8117.753237	0.255297	0.300110	559.603149
8117.754141	0.249210	0.300110	784.889160
8117.755068	0.241670	0.300110	1008.917175
8117.755981	0.495055	0.300110	1460.902344
8117.756936	0.100276	0.300110	1556.665771
8117.757842	0.101477	0.300110	1648.604004
8117.758764	0.102579	0.300110	1743.182129
8117.759654	0.100862	0.300110	1832.949097
8117.760602	0.102327	0.300110	1929.954834
8117.761523	0.101631	0.300110	2023.556885
8117.762416	0.102220	0.300110	2114.839844
8117.763372	0.099965	0.300110	2210.406006
8117.764273	0.101547	0.300110	2301.899414
8117.765183	0.101565	0.300110	2394.323486
8118.740437	0.719762	0.314515	318.854553
8118.741332	0.254689	0.314515	546.800964
8118.742309	0.249031	0.314515	790.104004
8118.743216	0.241417	0.314515	1009.069458
8118.744129	0.489902	0.314515	1456.350342
8118.745055	0.100170	0.314515	1549.107422
8118.745973	0.100378	0.314515	1641.254761
8118.746882	0.101287	0.314515	1733.324341
8118.747780	0.102748	0.314515	1825.591919
8118.748724	0.100254	0.314515	1920.231567
8118.749623	0.099906	0.314515	2010.047119
8118.750518	0.102136	0.314515	2101.458984
8118.751404	0.101938	0.314515	2191.776367
8118.752365	0.099280	0.314515	2287.184326
8118.753266	0.101616	0.314515	2378.740479
8119.787501	0.716016	0.301254	337.959381
8119.788410	0.255685	0.301254	570.376892
8119.789360	0.249276	0.301254	807.189209
8119.790281	0.241593	0.301254	1029.696411
8119.791215	0.478989	0.301254	1477.072388
8119.792105	0.101492	0.301254	1567.400024
8119.793044	0.100854	0.301254	1662.102417
8119.793939	0.103019	0.301254	1754.304199
8119.794828	0.102825	0.301254	1845.715332
8119.795744	0.101184	0.301254	1938.399902
8119.796677	0.101111	0.301254	2032.736328
8119.797577	0.101554	0.301254	2124.134766
8119.798465	0.102642	0.301254	2215.280518
8119.799393	0.100020	0.301254	2308.098633
8119.800302	0.101078	0.301254	2399.978516
8120.776152	0.664651	0.313440	296.434296
8120.777054	0.254916	0.313440	526.368286
8120.777946	0.249510	0.313440	748.931641
8120.778902	0.241392	0.313440	979.702026
8120.779820	0.480557	0.313440	1420.853027
8120.780712	0.101470	0.313440	1511.364014
8120.781654	0.101060	0.313440	1606.562134
8120.782563	0.100514	0.313440	1697.929321
8120.783468	0.102792	0.313440	1790.955811
8120.784362	0.102568	0.313440	1882.651978
8120.785322	0.099847	0.313440	1978.505493
8120.786218	0.100027	0.313440	2068.129639
8120.787117	0.101276	0.313440	2159.176514
8120.788004	0.100873	0.313440	2248.650635
8120.788945	0.098983	0.313440	2341.793701
8121.822678	0.667035	0.298466	296.163513
8121.823581	0.255337	0.298466	526.732727
8121.824473	0.250085	0.298466	749.808960
8121.825429	0.241750	0.298466	980.922424
8121.826350	0.485852	0.298466	1428.392090
8121.827245	0.101074	0.298466	1518.853516
8121.828184	0.101012	0.298466	1613.703735
8121.829088	0.100302	0.298466	1704.376343
8121.829987	0.103033	0.298466	1797.003418
8121.830880	0.102191	0.298466	1888.260132
8121.831832	0.099961	0.298466	1983.422974
8121.832726	0.100331	0.298466	2073.118652
8121.833625	0.101664	0.298466	2164.514404
8121.834513	0.101034	0.298466	2254.232422
8121.835460	0.099452	0.298466	2348.413330
8122.811396	0.720615	0.314463	358.866364
8122.812323	0.255421	0.314463	595.641724
8122.813228	0.248741	0.314463	820.752747
8122.814123	0.241377	0.314463	1036.785156
8122.815077	0.491041	0.314463	1505.238525
8122.815986	0.100133	0.314463	1596.259521
8122.816904	0.102312	0.314463	1690.181885
8122.817793	0.101638	0.314463	1780.538208
8122.818742	0.100159	0.314463	1875.588867
8122.819650	0.101917	0.314463	1968.129028
8122.820540	0.101294	0.314463	2058.280762
8122.821473	0.100280	0.314463	2151.841553
8122.822370	0.099507	0.314463	2241.099121
8122.823272	0.100734	0.314463	2331.960937
8122.824163	0.101254	0.314463	2422.177979
8123.857862	0.734414	0.299385	320.938965
8123.858760	0.254656	0.299385	549.619812
8123.859731	0.248719	0.299385	791.126465
8123.860652	0.241373	0.299385	1013.431274
8123.861556	0.468933	0.299385	1437.346802
8123.862492	0.099913	0.299385	1530.865723
8123.863408	0.102100	0.299385	1624.388916
8123.864331	0.102286	0.299385	1718.799194
8123.865217	0.101884	0.299385	1809.067993
8123.866165	0.100986	0.299385	1904.802979
8123.867068	0.101591	0.299385	1996.539307
8123.867953	0.101785	0.299385	2086.618652
8123.868886	0.100602	0.299385	2180.480225
8123.869790	0.100865	0.299385	2271.662598
8123.870701	0.101378	0.299385	2364.018066
8124.846535	0.717275	0.313560	314.883911
8124.847426	0.254784	0.313560	541.896362
8124.848419	0.248778	0.313560	788.932983
8124.849339	0.241641	0.313560	1011.242310
8124.850248	0.492261	0.313560	1458.707275
8124.851196	0.100642	0.313560	1554.115967
8124.852093	0.100305	0.313560	1644.089722
8124.852992	0.101594	0.313560	1735.422974
8124.853878	0.102642	0.313560	1826.363403
8124.854813	0.099767	0.313560	1919.645386
8124.855718	0.099943	0.313560	2010.093506
8124.856622	0.100635	0.313560	2101.067383
8124.857507	0.100657	0.313560	2190.148682
8124.858452	0.099269	0.313560	2283.957764
8124.859356	0.101008	0.313560	2375.269287
8125.893078	0.720150	0.300795	326.228027
8125.894015	0.255590	0.300795	565.715454
8125.894914	0.249390	0.300795	789.916748
8125.895877	0.241447	0.300795	1022.429749
8125.896782	0.484977	0.300795	1461.333740
8125.897674	0.101678	0.300795	1552.030884
8125.898609	0.101118	0.300795	1646.576416
8125.899523	0.101807	0.300795	1739.627686
8125.900441	0.102847	0.300795	1834.040894
8125.901328	0.102327	0.300795	1924.804687
8125.902292	0.100386	0.300795	2021.576538
8125.903201	0.101202	0.300795	2113.569580
8125.904128	0.101807	0.300795	2207.944336
8125.905018	0.101012	0.300795	2297.844971
8125.905981	0.100184	0.300795	2394.322510
8126.881781	0.618281	0.314314	293.065308
8126.882700	0.255062	0.314314	527.467529
8126.883597	0.249020	0.314314	750.838257
8126.884543	0.241333	0.314314	979.139282
8126.885463	0.494290	0.314314	1433.885620
8126.886365	0.101268	0.314314	1525.229614
8126.887256	0.101664	0.314314	1615.812012
8126.888213	0.100082	0.314314	1711.590332
8126.889117	0.100426	0.314314	1802.375488
8126.890012	0.101667	0.314314	1893.367920
8126.890942	0.100514	0.314314	1986.845825
8126.891847	0.099386	0.314314	2076.790039
8126.892752	0.101320	0.314314	2168.484375
8126.893646	0.101459	0.314314	2259.188477
8126.894576	0.099364	0.314314	2351.596924
8127.928271	0.715488	0.300364	319.107788
8127.929246	0.255374	0.300364	568.096985
8127.930149	0.248939	0.300364	792.889099
8127.931042	0.241436	0.300364	1008.491028
8127.932002	0.490836	0.300364	1479.693726
8127.932896	0.101609	0.300364	1570.532104
8127.933814	0.103433	0.300364	1665.483276
8127.934709	0.101719	0.300364	1756.521606
8127.935659	0.100627	0.300364	1852.117676
8127.936569	0.101235	0.300364	1944.241821
8127.937463	0.102480	0.300364	2035.859375
8127.938397	0.099990	0.300364	2129.250244
8127.939309	0.101078	0.300364	2221.433350
8127.940213	0.101320	0.300364	2313.026367
8127.941095	0.103290	0.300364	2404.127930
8128.917495	0.735839	0.313476	356.145905
8128.918412	0.255304	0.313476	590.259644
8128.919322	0.248895	0.313476	816.754333
8128.920219	0.241340	0.313476	1033.236572
8128.921177	0.471782	0.313476	1485.203979
8128.922078	0.099668	0.313476	1575.004761
8128.922986	0.101503	0.313476	1667.169189
8128.923875	0.101741	0.313476	1757.616699
8128.924834	0.100016	0.313476	1853.531982
8128.925744	0.101433	0.313476	1945.836060
8128.926638	0.100818	0.313476	2035.967285
8128.927570	0.100020	0.313476	2129.185547
8128.928469	0.099452	0.313476	2218.592773
8128.929369	0.101733	0.313476	2310.152832
8128.930257	0.102019	0.313476	2400.745850
8129.963986	0.706871	0.301004	311.023376
8129.964931	0.255410	0.301004	552.385986
8129.965851	0.249419	0.301004	781.851440
8129.966787	0.241501	0.301004	1007.896790
8129.967683	0.490166	0.301004	1447.085571
8129.968621	0.100448	0.301004	1541.305786
8129.969536	0.102290	0.301004	1634.901123
8129.970453	0.101481	0.301004	1727.958984
8129.971342	0.101697	0.301004	1818.367432
8129.972304	0.100869	0.301004	1915.403564
8129.973206	0.101356	0.301004	2006.826904
8129.974096	0.101909	0.301004	2097.526123
8129.975040	0.099518	0.301004	2191.470947
8129.975956	0.101144	0.301004	2284.118652
8129.976866	0.101774	0.301004	2376.732666
8130.952156	0.681541	0.315832	309.419403
8130.953052	0.255421	0.315832	538.276733
8130.954010	0.249510	0.315832	777.307739
8130.954927	0.241728	0.315832	998.972778
8130.955836	0.480839	0.315832	1436.055054
8130.956724	0.102056	0.315832	1526.680420
8130.957671	0.100089	0.315832	1621.464844
8130.958576	0.100642	0.315832	1712.545898
8130.959480	0.102056	0.315832	1804.804199
8130.960378	0.100444	0.315832	1895.003174
8130.961317	0.099752	0.315832	1988.670532
8130.962221	0.101107	0.315832	2080.071533
8130.963112	0.101455	0.315832	2170.468018
8130.964048	0.100063	0.315832	2264.127441
8130.964955	0.099836	0.315832	2354.679199
8131.999186	0.720234	0.301298	319.784058
8132.000087	0.255670	0.301298	550.142883
8132.000982	0.250283	0.301298	774.146362
8132.001958	0.241674	0.301298	1010.019775
8132.002871	0.490261	0.301298	1457.628174
8132.003763	0.101711	0.301298	1548.354736
8132.004700	0.100865	0.301298	1642.865723
8132.005618	0.101873	0.301298	1736.384766
8132.006528	0.102755	0.301298	1829.891968
8132.007418	0.102209	0.301298	1920.858398
8132.008356	0.100302	0.301298	2014.941162
8132.009254	0.101470	0.301298	2106.061035
8132.010169	0.101715	0.301298	2199.130371
8132.011069	0.101250	0.301298	2290.255371
8132.012031	0.100338	0.301298	2386.780762
8132.987405	0.552726	0.316892	274.704742
8132.988309	0.255531	0.316892	505.704773
8132.989221	0.249031	0.316892	732.820801
8132.990116	0.241564	0.316892	949.020325
8132.991094	0.488137	0.316892	1426.418457
8132.991998	0.100360	0.316892	1517.144043
8132.992894	0.102477	0.316892	1608.963257
8132.993826	0.100269	0.316892	1702.413574
8132.994733	0.099924	0.316892	1793.044922
8132.995629	0.103147	0.316892	1885.464600
8132.996521	0.101613	0.316892	1976.103027
8132.997462	0.099778	0.316892	2069.993896
8132.998362	0.100492	0.316892	2160.436523
8132.999267	0.102037	0.316892	2252.780273
8133.000165	0.100767	0.316892	2343.268799
8134.034415	0.714891	0.301931	340.288269
8134.035366	0.255377	0.301931	583.151978
8134.036275	0.248437	0.301931	808.981689
8134.037171	0.241293	0.301931	1025.179932
8134.038136	0.486511	0.301931	1494.663208
8134.039043	0.101360	0.301931	1586.596558
8134.039961	0.102891	0.301931	1681.050171
8134.040847	0.101982	0.301931	1771.406616
8134.041794	0.100800	0.301931	1866.863770
8134.042701	0.101854	0.301931	1959.245605
8134.043591	0.101678	0.301931	2049.739502
8134.044521	0.099675	0.301931	2142.437500
8134.045431	0.101880	0.301931	2235.148193
8134.046350	0.101030	0.301931	2327.995117
8134.047238	0.102070	0.301931	2418.633545
8135.023051	0.720787	0.315736	317.867218
8135.024022	0.255732	0.315736	566.183411
8135.024929	0.248972	0.315736	792.001160
8135.025833	0.241721	0.315736	1010.517090
8135.026770	0.466487	0.315736	1447.615234
8135.027685	0.099207	0.315736	1538.389160
8135.028594	0.102916	0.315736	1631.940063
8135.029493	0.102678	0.315736	1724.247803
8135.030430	0.100056	0.315736	1818.000366
8135.031325	0.100166	0.315736	1907.648926
8135.032226	0.103143	0.315736	2000.581055
8135.033114	0.101199	0.315736	2090.445557
8135.034050	0.099789	0.315736	2183.847900
8135.034949	0.100466	0.315736	2274.166992
8135.035846	0.101803	0.315736	2365.484375
8136.069075	0.718286	0.310164	319.637329
8136.069977	0.255044	0.310164	549.687012
8136.070914	0.249551	0.310164	783.516113
8136.071831	0.241600	0.310164	1005.063599
8136.072747	0.496230	0.310164	1459.610718
8136.073633	0.101829	0.310164	1549.830811
8136.074589	0.100283	0.310164	1645.701538
8136.075487	0.101444	0.310164	1736.798340
8136.076392	0.101635	0.310164	1828.777588
8136.077282	0.101378	0.310164	1919.004150
8136.078223	0.100898	0.310164	2013.949585
8136.079125	0.102748	0.310164	2106.628174
8136.080017	0.102209	0.310164	2197.799072
8136.080948	0.100001	0.310164	2290.900146
8136.081857	0.101488	0.310164	2383.152832
8137.059803	0.701576	0.311333	320.620209
8137.060755	0.255553	0.311333	563.906616
8137.061672	0.249020	0.311333	792.257751
8137.062568	0.241776	0.311333	1008.889160
8137.063528	0.440468	0.311333	1431.738037
8137.064423	0.099727	0.311333	1520.993286
8137.065329	0.102440	0.311333	1613.804077
8137.066219	0.102374	0.311333	1704.917236
8137.067169	0.100291	0.311333	1800.193237
8137.068079	0.100920	0.311333	1892.030762
8137.068976	0.102616	0.311333	1984.077271
8137.069911	0.100499	0.311333	2078.044189
8137.070817	0.099445	0.311333	2168.140869
8137.071727	0.100565	0.311333	2259.655273
8137.072617	0.102023	0.311333	2350.455566
8138.102736	0.719253	0.304452	315.752045
8138.103635	0.255363	0.304452	545.322998
8138.104598	0.249434	0.304452	785.527527
8138.105512	0.241820	0.304452	1006.551025
8138.106414	0.488394	0.304452	1447.082031
8138.107342	0.100071	0.304452	1539.947754
8138.108257	0.101060	0.304452	1632.417236
8138.109160	0.101649	0.304452	1724.206421
8138.110046	0.102118	0.304452	1814.682861
8138.110976	0.100027	0.304452	1907.707886
8138.111886	0.101532	0.304452	2000.102051
8138.112805	0.102092	0.304452	2093.924805
8138.113703	0.101034	0.304452	2184.653320
8138.114663	0.100876	0.304452	2281.494629
8138.115569	0.102323	0.304452	2374.199219
8139.097563	0.665460	0.313951	296.795227
8139.098470	0.255359	0.313951	528.405762
8139.099364	0.249895	0.313951	751.811890
8139.100322	0.241901	0.313951	983.552673
8139.101243	0.501801	0.313951	1445.710937
8139.102132	0.101847	0.313951	1536.252808
8139.103074	0.101656	0.313951	1632.013184
8139.103979	0.100221	0.313951	1722.713135
8139.104897	0.101927	0.313951	1816.282593
8139.105795	0.102667	0.313951	1908.477783
8139.106719	0.099639	0.313951	2000.543945
8139.107621	0.099939	0.313951	2090.688965
8139.108527	0.101733	0.313951	2182.859375
8139.109415	0.100964	0.313951	2272.515625
8139.110371	0.099192	0.313951	2367.343018
8140.134362	0.691062	0.307905	306.831512
8140.135270	0.255575	0.307905	538.893555
8140.136165	0.250173	0.307905	762.798706
8140.137097	0.241835	0.307905	988.188660
8140.138042	0.476953	0.307905	1438.909424
8140.138958	0.101309	0.307905	1531.708130
8140.139853	0.102590	0.307905	1623.526489
8140.140793	0.100137	0.307905	1717.655029
8140.141709	0.101459	0.307905	1810.591187
8140.142620	0.102162	0.307905	1903.660645
8140.143514	0.101466	0.307905	1994.371338
8140.144458	0.100616	0.307905	2089.353271
8140.145358	0.102561	0.307905	2181.658203
8140.146248	0.101891	0.307905	2272.341064
8140.147189	0.100393	0.307905	2366.811035
8141.137880	0.705817	0.314608	316.205841
8141.138777	0.254919	0.314608	544.868530
8141.139715	0.249294	0.314608	778.706665
8141.140641	0.241337	0.314608	1002.184448
8141.141555	0.496143	0.314608	1455.658691
8141.142447	0.101049	0.314608	1545.794067
8141.143406	0.100140	0.314608	1641.828735
8141.144315	0.100653	0.314608	1733.322388
8141.145212	0.101470	0.314608	1824.340698
8141.146134	0.100701	0.314608	1917.186768
8141.147046	0.099807	0.314608	2008.210815
8141.147958	0.101056	0.314608	2100.373779
8141.148851	0.101140	0.314608	2190.691895
8141.149774	0.100195	0.314608	2283.172119
8141.150688	0.099781	0.314608	2374.372314
8142.166480	0.700419	0.299780	310.985870
8142.167456	0.255670	0.299780	560.519958
8142.168361	0.248972	0.299780	785.839783
8142.169257	0.241622	0.299780	1002.333374
8142.170184	0.417048	0.299780	1388.937256
8142.171125	0.101184	0.299780	1484.151489
8142.172028	0.102191	0.299780	1576.430054
8142.172921	0.102733	0.299780	1668.170776
8142.173857	0.100378	0.299780	1762.125000
8142.174772	0.100957	0.299780	1854.500732
8142.175691	0.101708	0.299780	1947.970215
8142.176577	0.101382	0.299780	2037.794556
8142.177530	0.100305	0.299780	2133.385498
8142.178421	0.100583	0.299780	2223.005371
8142.179314	0.102001	0.299780	2314.092041
8143.177167	0.700778	0.311941	309.042908
8143.178068	0.254930	0.311941	538.735229
8143.178964	0.249727	0.311941	762.490234
8143.179926	0.241307	0.311941	994.627930
8143.180857	0.491378	0.311941	1452.100952
8143.181750	0.101770	0.311941	1542.981567
8143.182683	0.101301	0.311941	1637.495605
8143.183580	0.100331	0.311941	1727.492310
8143.184489	0.102422	0.311941	1820.593750
8143.185377	0.102455	0.311941	1911.573608
8143.186308	0.100085	0.311941	2004.753174
8143.187215	0.100232	0.311941	2095.663574
8143.188115	0.103418	0.311941	2188.739746
8143.189009	0.100210	0.311941	2278.327393
8143.189957	0.099229	0.311941	2372.395996
8144.198612	0.714760	0.310463	312.349915
8144.199513	0.254894	0.310463	542.009216
8144.200488	0.248892	0.310463	784.678528
8144.201404	0.241216	0.310463	1005.632202
8144.202305	0.494769	0.310463	1451.419312
8144.203235	0.099646	0.310463	1544.090088
8144.204143	0.101851	0.310463	1636.570435
8144.205046	0.101777	0.310463	1728.475342
8144.205934	0.102147	0.310463	1819.182129
8144.206876	0.099719	0.310463	1913.117676
8144.207770	0.101514	0.310463	2003.870850
8144.208657	0.101547	0.310463	2093.942627
8144.209582	0.100063	0.310463	2186.501465
8144.210506	0.100027	0.310463	2278.926270
8144.211409	0.101360	0.310463	2370.454346
8145.214915	0.722992	0.310302	313.778503
8145.215881	0.254879	0.310302	559.991760
8145.216808	0.248741	0.310302	790.575073
8145.217716	0.241311	0.310302	1009.685486
8145.218619	0.494041	0.310302	1455.804077
8145.219569	0.099584	0.310302	1550.408691
8145.220471	0.100840	0.310302	1641.366211
8145.221377	0.103649	0.310302	1735.271973
8145.222266	0.101023	0.310302	1825.081421
8145.223216	0.099855	0.310302	1919.943359
8145.224123	0.101210	0.310302	2011.740601
8145.225011	0.102609	0.310302	2102.857178
8145.225944	0.100009	0.310302	2196.165039
8145.226853	0.099467	0.310302	2286.580078
8145.227758	0.100869	0.310302	2377.866699
8146.229717	0.701836	0.319289	315.124329
8146.230684	0.255630	0.319289	562.318420
8146.231592	0.249100	0.319289	788.501526
8146.232489	0.241714	0.319289	1005.318848
8146.233461	0.490283	0.319289	1481.874146
8146.234362	0.101074	0.319289	1572.942017
8146.235273	0.102572	0.319289	1666.385132
8146.236173	0.102308	0.319289	1758.462646
8146.237118	0.101030	0.319289	1853.936279
8146.238022	0.102546	0.319289	1946.638184
8146.238911	0.101367	0.319289	2036.753662
8146.239833	0.100635	0.319289	2129.538818
8146.240755	0.101627	0.319289	2223.239014
8146.241658	0.101818	0.319289	2315.180420
8146.242555	0.101858	0.319289	2406.546875
8147.253200	0.695164	0.305915	305.176788
8147.254107	0.254839	0.305915	536.315674
8147.255002	0.249822	0.305915	759.906189
8147.255969	0.241326	0.305915	993.268127
8147.256883	0.477250	0.305915	1429.474365
8147.257775	0.100664	0.305915	1519.266724
8147.258660	0.100752	0.305915	1608.432251
8147.259614	0.100188	0.305915	1704.011597
8147.260510	0.100752	0.305915	1794.285400
8147.261409	0.102301	0.305915	1886.254028
8147.262335	0.100712	0.305915	1979.513062
8147.263241	0.099514	0.305915	2069.672852
8147.264139	0.101924	0.305915	2161.200439
8147.265028	0.101935	0.305915	2251.820557
8147.265978	0.099529	0.305915	2346.373047
8148.263418	0.595056	0.316610	277.891205
8148.264334	0.255604	0.316610	512.024658
8148.265266	0.249203	0.316610	744.281738
8148.266164	0.241586	0.316610	961.225708
8148.267134	0.480593	0.316610	1427.401245
8148.268026	0.102107	0.316610	1518.480591
8148.268916	0.102957	0.316610	1610.111938
8148.269867	0.100876	0.316610	1706.045410
8148.270769	0.101649	0.316610	1797.732910
8148.271693	0.102155	0.316610	1892.123657
8148.272585	0.102535	0.316610	1983.585205
8148.273529	0.100386	0.316610	2078.349365
8148.274432	0.101301	0.316610	2169.824463
8148.275322	0.101364	0.316610	2260.038086
8148.276234	0.100360	0.316610	2351.566406
8149.290955	0.705154	0.303727	308.152191
8149.291851	0.255135	0.303727	536.753540
8149.292823	0.249342	0.303727	779.114014
8149.293738	0.241549	0.303727	1000.131409
8149.294645	0.487375	0.303727	1442.180908
8149.295580	0.099836	0.303727	1535.527954
8149.296475	0.100144	0.303727	1625.156860
8149.297378	0.102048	0.303727	1717.306519
8149.298267	0.101957	0.303727	1807.946045
8149.299213	0.100023	0.303727	1902.567993
8149.300115	0.101060	0.303727	1993.723755
8149.301014	0.101763	0.303727	2085.208496
8149.301925	0.100496	0.303727	2176.760010
8149.302866	0.099639	0.303727	2270.520020
8149.303773	0.102422	0.303727	2363.416748
8150.298573	0.728760	0.316074	321.383057
8150.299538	0.255670	0.316074	568.104736
8150.300439	0.249053	0.316074	792.501221
8150.301349	0.241637	0.316074	1012.390869
8150.302280	0.404337	0.316074	1388.828735
8150.303222	0.100250	0.316074	1483.264404
8150.304128	0.102096	0.316074	1575.763306
8150.305019	0.102751	0.316074	1667.314819
8150.305955	0.100745	0.316074	1761.611816
8150.306866	0.100565	0.316074	1853.226685
8150.307768	0.102272	0.316074	1945.475830
8150.308653	0.100529	0.316074	2034.443604
8150.309603	0.098998	0.316074	2128.491455
8150.310504	0.101404	0.316074	2219.856201
8150.311389	0.100737	0.316074	2309.008789
8151.327193	0.696204	0.299409	311.899200
8151.328085	0.255344	0.299409	539.666260
8151.329046	0.249393	0.299409	779.333252
8151.329956	0.241670	0.299409	999.252930
8151.330863	0.501032	0.299409	1453.688477
8151.331796	0.100173	0.299409	1547.150146
8151.332711	0.100280	0.299409	1638.905884
8151.333623	0.103345	0.299409	1733.156250
8151.334521	0.101946	0.299409	1824.703613
8151.335455	0.100151	0.299409	1918.244995
8151.336358	0.100510	0.299409	2009.005737
8151.337259	0.103008	0.299409	2101.815674
8151.338147	0.101587	0.299409	2192.024902
8151.339091	0.099510	0.299409	2285.962891
8151.339992	0.100778	0.299409	2376.763428
8152.333811	0.715876	0.311587	342.188934
8152.334718	0.255623	0.311587	574.038574
8152.335667	0.249144	0.311587	810.476501
8152.336589	0.241487	0.311587	1033.127319
8152.337503	0.494930	0.311587	1485.493652
8152.338392	0.101792	0.311587	1575.986694
8152.339351	0.100283	0.311587	1672.158325
8152.340246	0.101364	0.311587	1762.878662
8152.341165	0.102451	0.311587	1857.031250
8152.342064	0.100386	0.311587	1947.278076
8152.342989	0.100082	0.311587	2039.853760
8152.343895	0.102253	0.311587	2132.495361
8152.344789	0.101682	0.311587	2223.399170
8152.345712	0.099910	0.311587	2315.615723
8152.346622	0.099895	0.311587	2406.520264
8153.363409	0.691088	0.299562	307.533997
8153.364307	0.255311	0.299562	536.803528
8153.365257	0.249452	0.299562	773.782837
8153.366183	0.241674	0.299562	997.572571
8153.367093	0.493411	0.299562	1446.576294
8153.367980	0.101536	0.299562	1536.638428
8153.368948	0.100455	0.299562	1633.879150
8153.369848	0.100752	0.299562	1724.555908
8153.370746	0.102162	0.299562	1816.297241
8153.371684	0.100466	0.299562	1910.534668
8153.372589	0.099917	0.299562	2000.959595
8153.373487	0.100924	0.299562	2091.589355
8153.374378	0.101235	0.299562	2181.790039
8153.375323	0.099305	0.299562	2275.633545
8153.376224	0.099620	0.299562	2365.391602
8154.369485	0.705480	0.315647	309.705566
8154.370389	0.255289	0.315647	540.487061
8154.371283	0.249807	0.315647	763.814636
8154.372248	0.241718	0.315647	997.072021
8154.373171	0.501453	0.315647	1459.912842
8154.374065	0.101547	0.315647	1550.695557
8154.375000	0.100499	0.315647	1644.662354
8154.375909	0.099939	0.315647	1735.506836
8154.376800	0.101444	0.315647	1825.893555
8154.377690	0.101836	0.315647	1916.527588
8154.378625	0.099521	0.315647	2009.580200
8154.379526	0.100027	0.315647	2099.704346
8154.380426	0.102224	0.315647	2191.706055
8154.381315	0.100052	0.315647	2280.652832
8154.382273	0.099152	0.315647	2375.640137
8155.398619	0.686946	0.302938	305.003937
8155.399536	0.255004	0.302938	538.842285
8155.400442	0.249371	0.302938	764.772705
8155.401369	0.241377	0.302938	988.529175
8155.402291	0.500479	0.302938	1449.970337
8155.403201	0.101027	0.302938	1541.904541
8155.404091	0.102821	0.302938	1633.415283
8155.405030	0.100701	0.302938	1727.973267
8155.405937	0.100496	0.302938	1819.122803
8155.406841	0.102792	0.302938	1912.046509
8155.407730	0.101748	0.302938	2002.500488
8155.408676	0.099514	0.302938	2096.640869
8155.409586	0.100972	0.302938	2188.525146
8155.410487	0.101960	0.302938	2280.391602
8155.411415	0.100126	0.302938	2373.308350
8156.404730	0.730049	0.319575	354.073669
8156.405647	0.255568	0.319575	588.429199
8156.406552	0.249240	0.319575	813.990967
8156.407447	0.241571	0.319575	1030.197021
8156.408426	0.487079	0.319575	1507.047241
8156.409334	0.099965	0.319575	1597.815063
8156.410230	0.102275	0.319575	1689.453857
8156.411121	0.101001	0.319575	1779.445679
8156.412070	0.099738	0.319575	1874.096558
8156.412971	0.101664	0.319575	1965.695679
8156.413866	0.101982	0.319575	2056.969971
8156.414799	0.099800	0.319575	2150.083252
8156.415703	0.099576	0.319575	2240.100342
8156.416601	0.101605	0.319575	2331.341797
8156.417489	0.101400	0.319575	2421.385010
8157.434321	0.691648	0.301584	306.400055
8157.435221	0.254615	0.301584	535.553955
8157.436180	0.248760	0.301584	774.114563
8157.437095	0.241219	0.301584	994.830383
8157.438034	0.490514	0.301584	1455.422974
8157.438919	0.100865	0.301584	1544.688965
8157.439872	0.101949	0.301584	1641.846802
8157.440789	0.102144	0.301584	1735.512451
8157.441678	0.102803	0.301584	1826.904053
8157.442612	0.101796	0.301584	1921.981201
8157.443528	0.100840	0.301584	2014.350464
8157.444450	0.102469	0.301584	2108.827393
8157.445354	0.101385	0.301584	2200.479980
8157.446292	0.100697	0.301584	2294.933838
8157.447196	0.100778	0.301584	2386.036865
8158.440393	0.728511	0.317899	315.445160
8158.441343	0.255319	0.317899	557.997864
8158.442270	0.249060	0.317899	788.876526
8158.443188	0.241575	0.317899	1010.642090
8158.444090	0.490712	0.317899	1453.264038
8158.445038	0.099089	0.317899	1547.200684
8158.445936	0.100496	0.317899	1637.445801
8158.446826	0.101759	0.317899	1728.011353
8158.447768	0.100679	0.317899	1822.850708
8158.448685	0.099803	0.317899	1914.370483
8158.449590	0.101261	0.317899	2006.011719
8158.450484	0.101312	0.317899	2096.584961
8158.451411	0.099521	0.317899	2188.841309
8158.452317	0.099734	0.317899	2279.200195
8158.453225	0.101561	0.317899	2371.417725
8159.469066	0.725599	0.301745	364.976471
8159.469987	0.255758	0.301745	600.529663
8159.470910	0.248676	0.301745	830.057190
8159.471817	0.241527	0.301745	1049.122314
8159.472780	0.483153	0.301745	1514.398682
8159.473698	0.100715	0.301745	1606.855347
8159.474618	0.102711	0.301745	1701.349609
8159.475508	0.102231	0.301745	1792.335571
8159.476455	0.102030	0.301745	1888.958008
8159.477372	0.101818	0.301745	1982.324829
8159.478260	0.100957	0.301745	2071.974609
8159.479208	0.100664	0.301745	2167.404053
8159.480115	0.101074	0.301745	2259.078369
8159.481030	0.101041	0.301745	2351.531006
8159.481923	0.101554	0.301745	2442.218750
8160.475603	0.690289	0.321158	305.798157
8160.476509	0.255227	0.321158	537.033875
8160.477407	0.249818	0.321158	761.370544
8160.478366	0.241611	0.321158	993.075806
8160.479286	0.455966	0.321158	1412.564087
8160.480186	0.100811	0.321158	1503.293579
8160.481121	0.100258	0.321158	1597.034424
8160.482025	0.100283	0.321158	1687.690430
8160.482926	0.103488	0.321158	1780.932739
8160.483814	0.101949	0.321158	1871.463867
8160.484778	0.099840	0.321158	1967.709717
8160.485677	0.100873	0.321158	2058.394287
8160.486570	0.102389	0.321158	2149.827637
8160.487479	0.100148	0.321158	2240.861816
8160.488402	0.099543	0.321158	2332.740479
8161.504738	0.687045	0.306217	309.857147
8161.505658	0.255575	0.306217	544.986084
8161.506561	0.249928	0.306217	770.671021
8161.507493	0.241886	0.306217	996.108765
8161.508421	0.488097	0.306217	1449.062744
8161.509320	0.101964	0.306217	1540.728516
8161.510213	0.101993	0.306217	1631.808594
8161.511161	0.100184	0.306217	1726.783325
8161.512062	0.100085	0.306217	1816.960327
8161.512965	0.102195	0.306217	1909.242310
8161.513853	0.101737	0.306217	1999.584839
8161.514801	0.099500	0.306217	2093.910400
8161.515701	0.100536	0.306217	2184.392578
8161.516601	0.101686	0.306217	2275.909668
8161.517534	0.101375	0.306217	2370.492187
8162.510279	0.717847	0.321097	312.981171
8162.511230	0.255396	0.321097	555.862305
8162.512149	0.249108	0.321097	784.792236
8162.513047	0.241754	0.321097	1001.887451
8162.513945	0.499640	0.321097	1450.564087
8162.514890	0.099152	0.321097	1544.262329
8162.515788	0.101272	0.321097	1635.204590
8162.516692	0.102198	0.321097	1727.592041
8162.517580	0.101426	0.321097	1817.658081
8162.518546	0.100327	0.321097	1914.574097
8162.519451	0.101836	0.321097	2006.735596
8162.520343	0.101646	0.321097	2097.403320
8162.521288	0.100133	0.321097	2192.029053
8162.522199	0.101005	0.321097	2284.044189
8162.523099	0.103722	0.321097	2377.394043
8163.539408	0.700704	0.308263	311.813416
8163.540302	0.255081	0.308263	539.855469
8163.541248	0.249474	0.308263	775.857788
8163.542167	0.241688	0.308263	997.969238
8163.543085	0.501321	0.308263	1458.181641
8163.544026	0.100327	0.308263	1552.589478
8163.544936	0.100177	0.308263	1643.750488
8163.545835	0.103495	0.308263	1736.792358
8163.546724	0.101858	0.308263	1827.343994
8163.547684	0.099697	0.308263	1923.053345
8163.548578	0.100825	0.308263	2013.191040
8163.549478	0.102455	0.308263	2105.400391
8163.550366	0.100470	0.308263	2194.617676
8163.551302	0.099437	0.308263	2287.690918
8163.552211	0.100294	0.308263	2378.858398
8164.546008	0.687118	0.322793	307.141693
8164.546904	0.255344	0.322793	535.930115
8164.547855	0.249609	0.322793	773.308655
8164.548774	0.241725	0.322793	995.453796
8164.549683	0.498135	0.322793	1448.258301
8164.550566	0.100679	0.322793	1537.157593
8164.551520	0.100049	0.322793	1632.604126
8164.552412	0.102675	0.322793	1724.189819
8164.553306	0.103751	0.322793	1816.943359
8164.554229	0.101360	0.322793	1910.498535
8164.555149	0.100452	0.322793	2002.914062
8164.556061	0.101320	0.322793	2095.317627
8164.556952	0.101960	0.322793	2186.164307
8164.557887	0.099957	0.322793	2279.624268
8164.558799	0.100803	0.322793	2371.556885
8165.574167	0.568608	0.306056	282.598358
8165.575087	0.255743	0.306056	517.882324
8165.575996	0.248983	0.306056	744.208008
8165.576891	0.241641	0.306056	960.476318
8165.577850	0.481681	0.306056	1422.408325
8165.578752	0.100620	0.306056	1513.167725
8165.579648	0.103096	0.306056	1605.541504
8165.580573	0.100170	0.306056	1698.198486
8165.581483	0.099998	0.306056	1789.196289
8165.582381	0.102385	0.306056	1881.138184
8165.583269	0.101719	0.306056	1971.464478
8165.584236	0.099683	0.306056	2067.857666
8165.585135	0.100847	0.306056	2158.519287
8165.586037	0.102261	0.306056	2250.758545
8165.586940	0.100690	0.306056	2341.681396
8166.581715	0.692516	0.318084	308.862061
8166.582617	0.255088	0.318084	538.951294
8166.583510	0.249906	0.318084	762.117310
8166.584475	0.241791	0.318084	995.445435
8166.585397	0.488148	0.318084	1445.518066
8166.586292	0.101429	0.318084	1536.297363
8166.587181	0.101415	0.318084	1626.455078
8166.588132	0.100466	0.318084	1721.998535
8166.589031	0.103689	0.318084	1815.214966
8166.589920	0.102334	0.318084	1906.189941
8166.590845	0.100177	0.318084	1998.853638
8166.591767	0.100583	0.318084	2091.591553
8166.592673	0.101876	0.318084	2183.891357
8166.593566	0.102400	0.318084	2275.334473
8166.594522	0.099163	0.318084	2370.133789
8167.607278	0.608511	0.307296	284.783020
8167.608193	0.255487	0.307296	518.553711
8167.609105	0.249185	0.307296	745.810059
8167.610002	0.241652	0.307296	962.571533
8167.610969	0.496941	0.307296	1443.113403
8167.611874	0.100704	0.307296	1534.250854
8167.612770	0.102997	0.307296	1626.536011
8167.613711	0.100583	0.307296	1721.185059
8167.614613	0.099803	0.307296	1811.207764
8167.615510	0.102740	0.307296	1903.365967
8167.616397	0.102711	0.307296	1994.470825
8167.617336	0.099426	0.307296	2087.832031
8167.618240	0.100096	0.307296	2178.319092
8167.619143	0.102081	0.307296	2270.498535
8167.620033	0.100638	0.307296	2360.066650
8168.619492	0.624027	0.312719	290.796631
8168.620404	0.255245	0.312719	523.580383
8168.621307	0.249221	0.312719	748.627136
8168.622263	0.241450	0.312719	979.453552
8168.623193	0.484680	0.312719	1430.206055
8168.624082	0.102092	0.312719	1520.966064
8168.625038	0.101477	0.312719	1617.978149
8168.625958	0.101737	0.312719	1711.576294
8168.626878	0.102620	0.312719	1805.986328
8168.627766	0.101993	0.312719	1896.556519
8168.628703	0.100844	0.312719	1991.046875
8168.629623	0.101060	0.312719	2084.021729
8168.630519	0.101836	0.312719	2175.266602
8168.631444	0.102012	0.312719	2269.627441
8168.632359	0.100594	0.312719	2361.671387
8169.639369	0.718931	0.312151	311.296967
8169.640324	0.255161	0.312151	554.975830
8169.641240	0.248840	0.312151	782.913574
8169.642143	0.241373	0.312151	1000.873657
8169.643039	0.470999	0.312151	1422.888428
8169.643994	0.099467	0.312151	1517.879028
8169.644902	0.100961	0.312151	1609.551392
8169.645801	0.101561	0.312151	1700.854980
8169.646742	0.100931	0.312151	1795.831421
8169.647655	0.099587	0.312151	1886.754761
8169.648562	0.101499	0.312151	1978.814331
8169.649455	0.102363	0.312151	2070.224854
8169.650400	0.099280	0.312151	2164.044189
8169.651300	0.100060	0.312151	2254.098145
8169.652199	0.102788	0.312151	2346.504639
8170.657243	0.663999	0.309548	296.143555
8170.658163	0.255297	0.309548	531.016479
8170.659071	0.249606	0.309548	757.658447
8170.660021	0.241813	0.309548	987.380554
8170.660946	0.497706	0.309548	1447.758911
8170.661842	0.101433	0.309548	1538.642944
8170.662730	0.101891	0.309548	1629.122070
8170.663682	0.100133	0.309548	1724.448730
8170.664586	0.100364	0.309548	1815.177612
8170.665486	0.101224	0.309548	1906.279541
8170.666373	0.100649	0.309548	1995.555542
8170.667305	0.099309	0.309548	2088.111572
8170.668216	0.100518	0.309548	2179.683105
8170.669114	0.101268	0.309548	2270.622070
8170.670045	0.100507	0.309548	2364.193604
8171.672026	0.659777	0.311611	301.517914
8171.672918	0.255406	0.311611	529.340515
8171.673876	0.249445	0.311611	768.308411
8171.674791	0.241659	0.311611	989.426331
8171.675696	0.500262	0.311611	1442.163818
8171.676584	0.101334	0.311611	1532.148560
8171.677519	0.100096	0.311611	1625.738770
8171.678426	0.102173	0.311611	1718.409546
8171.679319	0.103143	0.311611	1810.516479
8171.680251	0.100312	0.311611	1904.007690
8171.681156	0.100320	0.311611	1994.797119
8171.682062	0.100726	0.311611	2086.055176
8171.682946	0.101558	0.311611	2175.832031
8171.683894	0.099196	0.311611	2269.869385
8171.684809	0.100576	0.311611	2361.896484
8172.697544	0.695669	0.304924	306.094330
8172.698447	0.255231	0.304924	536.567688
8172.699340	0.250261	0.304924	760.050964
8172.700306	0.241765	0.304924	993.596069
8172.701236	0.493542	0.304924	1452.590576
8172.702127	0.101752	0.304924	1543.251343
8172.703068	0.100569	0.304924	1637.886597
8172.703971	0.100221	0.304924	1728.386108
8172.704869	0.102257	0.304924	1820.213013
8172.705762	0.102557	0.304924	1911.796753
8172.706699	0.100001	0.304924	2005.497925
8172.707608	0.099946	0.304924	2096.349121
8172.708511	0.102136	0.304924	2188.578125
8172.709400	0.100792	0.304924	2278.182373
8172.710327	0.099507	0.304924	2370.425293
8173.704179	0.590515	0.316336	277.542114
8173.705091	0.255597	0.316336	510.646515
8173.706020	0.249360	0.316336	742.302246
8173.706928	0.241666	0.316336	961.735229
8173.707910	0.487789	0.316336	1440.744385
8173.708811	0.102319	0.316336	1532.934082
8173.709699	0.103169	0.316336	1624.548096
8173.710628	0.100679	0.316336	1718.078613
8173.711549	0.101492	0.316336	1811.552490
8173.712474	0.101429	0.316336	1905.374756
8173.713364	0.101525	0.316336	1995.731689
8173.714311	0.099858	0.316336	2090.297607
8173.715207	0.101323	0.316336	2181.083252
8173.716097	0.101938	0.316336	2271.808594
8173.717007	0.100349	0.316336	2363.126221
8174.735818	0.729430	0.304118	320.949188
8174.736791	0.255824	0.304118	569.865906
8174.737703	0.249243	0.304118	797.175659
8174.738605	0.241692	0.304118	1015.181763
8174.739555	0.462341	0.304118	1454.406006
8174.740461	0.099602	0.304118	1544.645508
8174.741359	0.102506	0.304118	1636.696045
8174.742249	0.102019	0.304118	1727.493042
8174.743183	0.100089	0.304118	1820.976318
8174.744096	0.100448	0.304118	1912.685303
8174.744995	0.101851	0.304118	2004.249023
8174.745881	0.100660	0.304118	2093.434082
8174.746839	0.099357	0.304118	2188.617676
8174.747744	0.100214	0.304118	2279.311035
8174.748636	0.102598	0.304118	2370.828125
8175.735754	0.700873	0.315820	308.384064
8175.736703	0.255428	0.315820	550.785645
8175.737625	0.249144	0.315820	780.496643
8175.738528	0.241597	0.315820	998.658447
8175.739487	0.491979	0.315820	1470.466064
8175.740394	0.099218	0.315820	1560.456299
8175.741291	0.102426	0.315820	1652.332031
8175.742181	0.102719	0.315820	1743.751465
8175.743138	0.100210	0.315820	1839.652344
8175.744038	0.100510	0.315820	1930.111572
8175.744940	0.102184	0.315820	2022.281372
8175.745825	0.101426	0.315820	2112.043213
8175.746762	0.099423	0.315820	2205.202148
8175.747670	0.100730	0.315820	2296.665039
8175.748568	0.101609	0.315820	2387.909912
8176.774612	0.705784	0.300803	312.662170
8176.775509	0.254828	0.300803	541.242798
8176.776483	0.248866	0.300803	783.638245
8176.777395	0.241370	0.300803	1003.767334
8176.778295	0.495857	0.300803	1450.038574
8176.779215	0.100583	0.300803	1542.575439
8176.780130	0.100148	0.300803	1634.210571
8176.781040	0.100770	0.300803	1725.911499
8176.781934	0.102869	0.300803	1817.876099
8176.782859	0.100042	0.300803	1910.414551
8176.783768	0.099543	0.300803	2000.899536
8176.784671	0.101440	0.300803	2092.500244
8176.785559	0.101594	0.300803	2182.715820
8176.786501	0.099155	0.300803	2276.120117
8176.787412	0.100206	0.300803	2367.407959
8177.768395	0.719806	0.315546	310.956146
8177.769352	0.254967	0.315546	554.959595
8177.770255	0.249108	0.315546	779.903809
8177.771160	0.241293	0.315546	998.273682
8177.772061	0.494872	0.315546	1444.153198
8177.773002	0.099448	0.315546	1537.734009
8177.773901	0.101136	0.315546	1628.655762
8177.774804	0.102001	0.315546	1720.762451
8177.775691	0.101415	0.315546	1810.717407
8177.776636	0.099946	0.315546	1905.166626
8177.777553	0.101528	0.315546	1998.268066
8177.778441	0.104088	0.315546	2090.698242
8177.779373	0.100012	0.315546	2183.909668
8177.780278	0.099401	0.315546	2273.867187
8177.781184	0.101733	0.315546	2366.037598
8178.811848	0.728752	0.301387	319.193573
8178.812796	0.255205	0.301387	561.127991
8178.813736	0.248965	0.301387	795.154907
8178.814650	0.241509	0.301387	1015.893921
8178.815548	0.488708	0.301387	1454.754150
8178.816483	0.099697	0.301387	1547.971069
8178.817397	0.101030	0.301387	1640.312744
8178.818303	0.101012	0.301387	1731.829590
8178.819191	0.102246	0.301387	1822.624146
8178.820131	0.099617	0.301387	1916.263794
8178.821029	0.101880	0.301387	2007.751953
8178.821919	0.101338	0.301387	2097.942627
8178.822854	0.100723	0.301387	2192.118408
8178.823768	0.100719	0.301387	2284.175537
8178.824675	0.101638	0.301387	2376.361328
8179.801551	0.714467	0.318946	313.650818
8179.802485	0.255190	0.318946	551.998657
8179.803408	0.249287	0.318946	782.090698
8179.804322	0.241362	0.318946	1002.695801
8179.805221	0.499098	0.318946	1451.384766
8179.806173	0.099371	0.318946	1545.986328
8179.807077	0.101294	0.318946	1637.556030
8179.807968	0.102330	0.318946	1728.732300
8179.808875	0.101082	0.318946	1820.413208
8179.809796	0.100115	0.318946	1912.618896
8179.810708	0.101642	0.318946	2005.316284
8179.811602	0.102418	0.318946	2096.878174
8179.812534	0.100005	0.318946	2190.082764
8179.813443	0.099459	0.318946	2280.491211
8179.814343	0.101949	0.318946	2372.245605
8180.847566	0.719180	0.303913	315.000702
8180.848458	0.254751	0.303913	542.238586
8180.849410	0.249163	0.303913	779.441345
8180.850334	0.241447	0.303913	1002.537964
8180.851249	0.496523	0.303913	1456.856934
8180.852179	0.100107	0.303913	1549.956787
8180.853095	0.100027	0.303913	1641.581421
8180.854008	0.101799	0.303913	1734.524170
8180.854908	0.102078	0.303913	1826.394043
8180.855855	0.100510	0.303913	1921.577271
8180.856750	0.099884	0.303913	2010.973511
8180.857656	0.102081	0.303913	2103.459229
8180.858540	0.101382	0.303913	2193.080811
8180.859474	0.099701	0.303913	2286.201416
8180.860389	0.100269	0.303913	2377.947021
8181.836779	0.673488	0.317242	309.130768
8181.837684	0.255183	0.317242	540.071533
8181.838578	0.249551	0.317242	763.169922
8181.839536	0.241315	0.317242	994.349365
8181.840473	0.486720	0.317242	1450.406006
8181.841369	0.100737	0.317242	1540.666626
8181.842302	0.100712	0.317242	1634.630615
8181.843212	0.100411	0.317242	1726.005005
8181.844112	0.103484	0.317242	1819.140503
8181.845001	0.102396	0.317242	1910.170776
8181.845934	0.099891	0.317242	2003.369385
8181.846835	0.100562	0.317242	2093.975342
8181.847732	0.101832	0.317242	2185.318848
8181.848637	0.100236	0.317242	2276.031982
8181.849570	0.099108	0.317242	2368.499512
8182.883801	0.673451	0.304549	305.073273
8182.884699	0.254945	0.304549	534.013916
8182.885635	0.249038	0.304549	767.113586
8182.886550	0.241381	0.304549	987.976807
8182.887454	0.493835	0.304549	1434.404053
8182.888339	0.101382	0.304549	1524.126953
8182.889291	0.100093	0.304549	1619.415283
8182.890203	0.101279	0.304549	1711.781982
8182.891093	0.101624	0.304549	1802.226929
8182.892023	0.101243	0.304549	1896.382568
8182.892934	0.099983	0.304549	1987.467041
8182.893834	0.100983	0.304549	2078.351562
8182.894723	0.102627	0.304549	2169.586914
8182.895672	0.099653	0.304549	2264.157959
8182.896568	0.099763	0.304549	2353.545898
8183.871999	0.730276	0.316864	359.295715
8183.872923	0.255491	0.316864	595.369141
8183.873824	0.248789	0.316864	819.528076
8183.874722	0.241589	0.316864	1036.475342
8183.875684	0.490433	0.316864	1508.272217
8183.876592	0.099998	0.316864	1599.069946
8183.877488	0.102235	0.316864	1690.672607
8183.878375	0.101462	0.316864	1780.669800
8183.879311	0.100144	0.316864	1874.404663
8183.880220	0.100906	0.316864	1966.128052
8183.881115	0.101825	0.316864	2057.261475
8183.882044	0.100210	0.316864	2150.356445
8183.882956	0.099265	0.316864	2240.886230
8183.883860	0.102001	0.316864	2333.094971
8183.884749	0.102283	0.316864	2424.024414
8184.918474	0.729056	0.303067	319.326691
8184.919434	0.255912	0.303067	565.002075
8184.920349	0.249023	0.303067	792.858521
8184.921248	0.241681	0.303067	1010.129639
8184.922186	0.449857	0.303067	1432.095703
8184.923099	0.100001	0.303067	1523.396851
8184.924010	0.102946	0.303067	1617.180298
8184.924902	0.102220	0.303067	1708.360962
8184.925854	0.100430	0.303067	1803.969971
8184.926764	0.101221	0.303067	1896.080811
8184.927659	0.102806	0.303067	1988.092529
8184.928548	0.101759	0.303067	2078.556396
8184.929484	0.099668	0.303067	2171.845703
8184.930389	0.101023	0.303067	2263.271484
8184.931283	0.101583	0.303067	2354.086914
8185.907151	0.714763	0.316727	315.210541
8185.908045	0.255190	0.316727	543.350769
8185.909017	0.249261	0.316727	785.632935
8185.909939	0.241769	0.316727	1008.543762
8185.910843	0.493477	0.316727	1454.646484
8185.911783	0.100558	0.316727	1549.170898
8185.912698	0.100312	0.316727	1640.956787
8185.913599	0.102627	0.316727	1733.423706
8185.914490	0.101752	0.316727	1824.084473
8185.915424	0.099822	0.316727	1917.317993
8185.916327	0.100844	0.316727	2008.379639
8185.917232	0.100917	0.316727	2099.709229
8185.918121	0.100785	0.316727	2189.307129
8185.919067	0.099298	0.316727	2283.243164
8185.919970	0.099928	0.316727	2373.478027
8186.954184	0.716752	0.300472	311.786987
8186.955147	0.255227	0.300472	557.570679
8186.956059	0.248943	0.300472	784.606567
8186.956965	0.241597	0.300472	1003.493164
8186.957865	0.491986	0.300472	1446.280640
8186.958826	0.099668	0.300472	1542.061523
8186.959731	0.101038	0.300472	1633.500488
8186.960626	0.102671	0.300472	1725.390991
8186.961552	0.100887	0.300472	1818.812744
8186.962465	0.100049	0.300472	1910.157349
8186.963366	0.102708	0.300472	2002.696777
8186.964260	0.102349	0.300472	2094.196533
8186.965189	0.099910	0.300472	2187.012695
8186.966099	0.099756	0.300472	2277.790527
8186.966998	0.103008	0.300472	2370.394531
8187.942364	0.687535	0.320743	305.953247
8187.943280	0.255472	0.320743	539.966003
8187.944189	0.249836	0.320743	767.067322
8187.945085	0.241747	0.320743	983.672485
8187.946059	0.490825	0.320743	1461.736206
8187.946961	0.101755	0.320743	1553.519531
8187.947853	0.102784	0.320743	1645.203247
8187.948788	0.100503	0.320743	1739.173462
8187.949694	0.101521	0.320743	1831.151489
8187.950592	0.102103	0.320743	1922.840210
8187.951481	0.102957	0.320743	2014.368530
8187.952428	0.099342	0.320743	2108.445557
8187.953331	0.100990	0.320743	2199.639404
8187.954228	0.101722	0.320743	2290.884521
8187.955167	0.099177	0.320743	2384.011963
8188.989903	0.705271	0.302277	311.024506
8188.990797	0.255381	0.302277	539.335022
8188.991748	0.249565	0.302277	776.671753
8188.992671	0.241798	0.302277	999.851379
8188.993589	0.495912	0.302277	1455.098389
8188.994478	0.100664	0.302277	1544.588745
8188.995444	0.100448	0.302277	1641.621460
8188.996342	0.102316	0.302277	1733.500977
8188.997234	0.102850	0.302277	1825.243530
8188.998179	0.100638	0.302277	1920.346802
8188.999078	0.100063	0.302277	2010.303833
8188.999975	0.102081	0.302277	2101.870850
8189.000867	0.101759	0.302277	2192.639893
8189.001801	0.099309	0.302277	2285.394531
8189.002699	0.099701	0.302277	2374.926025
8189.978068	0.714965	0.318326	315.299377
8189.978968	0.254945	0.318326	544.749939
8189.979914	0.249027	0.318326	780.329590
8189.980854	0.241370	0.318326	1007.217041
8189.981764	0.501749	0.318326	1463.808838
8189.982725	0.101250	0.318326	1561.110107
8189.983634	0.102242	0.318326	1654.048462
8189.984554	0.102063	0.318326	1747.946411
8189.985445	0.101462	0.318326	1838.349365
8189.986400	0.100836	0.318326	1934.647949
8189.987297	0.100928	0.318326	2025.180176
8189.988215	0.101298	0.318326	2118.171387
8189.989101	0.101195	0.318326	2207.830322
8189.990054	0.101034	0.318326	2304.115723
8189.990972	0.100660	0.318326	2396.521973
