time (s)	coil I (A)	last det (V)	int current (uC)
5083.539417	0.686711	0.347560	306.959991
5083.540348	0.399456	0.347560	678.853149
5083.541250	0.098734	0.347560	767.911316
5083.542196	0.098730	0.347560	861.310364
5083.543110	0.098346	0.347560	951.198547
5083.544017	0.099752	0.347560	1041.673828
5083.544903	0.099434	0.347560	1129.771973
5083.545856	0.098284	0.347560	1223.436279
5083.546761	0.098566	0.347560	1312.638184
5083.547650	0.099353	0.347560	1400.963013
5083.548561	0.098994	0.347560	1491.146729
5083.549488	0.098401	0.347560	1582.364380
5084.528647	0.720007	0.362907	360.003662
5084.529565	0.406835	0.362907	733.477905
5084.530470	0.099862	0.362907	823.853088
5084.531357	0.099609	0.362907	912.206604
5084.532310	0.098661	0.362907	1006.230408
5084.533207	0.098928	0.362907	1094.968994
5084.534102	0.099554	0.362907	1184.070190
5084.534985	0.099675	0.362907	1272.083496
5084.535931	0.098657	0.362907	1365.413208
5084.536836	0.098998	0.362907	1455.006226
5084.537734	0.099551	0.362907	1544.402832
5084.538675	0.098427	0.362907	1637.022217
5085.574606	0.714229	0.341867	314.974762
5085.575546	0.379457	0.341867	671.664185
5085.576459	0.097991	0.341867	761.129700
5085.577363	0.099598	0.341867	851.166626
5085.578260	0.099463	0.341867	940.384827
5085.579203	0.098540	0.341867	1033.308105
5085.580115	0.099005	0.341867	1123.600830
5085.581019	0.100133	0.341867	1214.121094
5085.581906	0.099580	0.341867	1302.448608
5085.582849	0.098485	0.341867	1395.320068
5085.583756	0.099510	0.341867	1485.576050
5085.584647	0.100140	0.341867	1574.801147
5086.564815	0.705150	0.357236	310.971191
5086.565800	0.393710	0.357236	698.775269
5086.566711	0.099016	0.357236	788.978943
5086.567601	0.100082	0.357236	878.051758
5086.568543	0.098877	0.357236	971.193848
5086.569449	0.098730	0.357236	1060.643677
5086.570344	0.099708	0.357236	1149.882568
5086.571235	0.099060	0.357236	1238.145020
5086.572175	0.098240	0.357236	1330.490356
5086.573079	0.099141	0.357236	1420.113525
5086.573986	0.099485	0.357236	1510.346313
5086.574894	0.098983	0.357236	1600.223022
5087.609825	0.686935	0.335446	309.120667
5087.610732	0.394186	0.335446	666.647156
5087.611622	0.099445	0.335446	755.152832
5087.612567	0.098727	0.335446	848.449646
5087.613469	0.099386	0.335446	938.095825
5087.614389	0.100063	0.335446	1030.154175
5087.615275	0.099591	0.335446	1118.391846
5087.616217	0.098914	0.335446	1211.568481
5087.617119	0.099390	0.335446	1301.217896
5087.618034	0.099807	0.335446	1392.541382
5087.618920	0.099020	0.335446	1480.272949
5087.619871	0.099500	0.335446	1574.896973
5088.599507	0.700100	0.354774	311.544556
5088.600430	0.385865	0.354774	667.698364
5088.601328	0.098470	0.354774	756.124817
5088.602270	0.098632	0.354774	849.035767
5088.603183	0.099419	0.354774	939.805298
5088.604075	0.099379	0.354774	1028.451050
5088.605014	0.098485	0.354774	1120.928589
5088.605913	0.098416	0.354774	1209.404175
5088.606814	0.099569	0.354774	1299.115967
5088.607708	0.098873	0.354774	1387.508667
5088.608654	0.098177	0.354774	1480.384521
5088.609558	0.098877	0.354774	1569.769287
5089.645053	0.548236	0.337263	267.539215
5089.645979	0.411064	0.337263	648.184937
5089.646886	0.099913	0.337263	738.806335
5089.647774	0.099869	0.337263	827.490356
5089.648724	0.098639	0.337263	921.197327
5089.649632	0.099415	0.337263	1011.466431
5089.650525	0.099543	0.337263	1100.358765
5089.651465	0.098862	0.337263	1193.289307
5089.652365	0.098232	0.337263	1281.698486
5089.653274	0.099229	0.337263	1371.897217
5089.654165	0.099507	0.337263	1460.557861
5089.655102	0.098170	0.337263	1552.543335
5090.633682	0.700082	0.346435	310.836334
5090.634637	0.365197	0.346435	659.598999
5090.635545	0.098035	0.346435	748.614502
5090.636443	0.099785	0.346435	838.221558
5090.637328	0.100452	0.346435	927.121277
5090.638267	0.098467	0.346435	1019.581604
5090.639171	0.098503	0.346435	1108.628662
5090.640076	0.099265	0.346435	1198.463623
5090.640965	0.098844	0.346435	1286.335937
5090.641923	0.098232	0.346435	1380.442627
5090.642828	0.098763	0.346435	1469.823486
5090.643730	0.099463	0.346435	1559.539062
5091.678683	0.672103	0.337948	299.085968
5091.679608	0.405048	0.337948	673.755005
5091.680504	0.099148	0.337948	762.591553
5091.681437	0.098972	0.337948	854.932556
5091.682351	0.098998	0.337948	945.416565
5091.683258	0.099686	0.337948	1035.832031
5091.684142	0.099789	0.337948	1124.045288
5091.685085	0.098427	0.337948	1216.861450
5091.685994	0.098851	0.337948	1306.717285
5091.686887	0.099899	0.337948	1395.926758
5091.687809	0.098859	0.337948	1487.074463
5091.688723	0.098291	0.337948	1576.912476
5092.669394	0.705952	0.340518	314.854675
5092.670295	0.415155	0.340518	688.909363
5092.671181	0.098287	0.340518	775.991943
5092.672135	0.098375	0.340518	869.841919
5092.673033	0.099719	0.340518	959.389771
5092.673924	0.099441	0.340518	1047.991577
5092.674865	0.099357	0.340518	1141.486206
5092.675768	0.099071	0.340518	1230.947388
5092.676680	0.099254	0.340518	1321.467163
5092.677571	0.099591	0.340518	1410.202759
5092.678516	0.098302	0.340518	1503.098145
5092.679429	0.099642	0.340518	1594.071533
5093.712345	0.686525	0.337456	310.995697
5093.713253	0.404161	0.337456	677.974243
5093.714176	0.098892	0.337456	769.251221
5093.715108	0.098529	0.337456	861.080322
5093.716031	0.099423	0.337456	952.847412
5093.716934	0.099833	0.337456	1042.996338
5093.717861	0.098939	0.337456	1134.713013
5093.718758	0.098628	0.337456	1223.182251
5093.719660	0.099778	0.337456	1313.181885
5093.720548	0.099976	0.337456	1401.960205
5093.721490	0.098251	0.337456	1494.512451
5093.722390	0.099261	0.337456	1583.847778
5094.704589	0.713994	0.337968	317.013397
5094.705570	0.405278	0.337968	714.591431
5094.706473	0.098569	0.337968	803.599548
5094.707367	0.099441	0.337968	892.499756
5094.708269	0.099324	0.337968	982.089783
5094.709223	0.099382	0.337968	1076.900513
5094.710127	0.100056	0.337968	1167.351318
5094.711017	0.100221	0.337968	1256.547974
5094.711947	0.098961	0.337968	1348.581909
5094.712872	0.100027	0.337968	1441.106689
5094.713768	0.099716	0.337968	1530.451904
5094.714711	0.098888	0.337968	1623.703247
5095.745997	0.717850	0.343108	313.700592
5095.746892	0.404469	0.343108	675.700317
5095.747859	0.098115	0.343108	770.577759
5095.748755	0.098976	0.343108	859.260132
5095.749656	0.099565	0.343108	948.968567
5095.750548	0.099207	0.343108	1037.460815
5095.751498	0.098456	0.343108	1130.993896
5095.752403	0.099485	0.343108	1221.027710
5095.753296	0.099291	0.343108	1309.694336
5095.754225	0.098698	0.343108	1401.384277
5095.755128	0.098137	0.343108	1490.002197
5095.756026	0.099463	0.343108	1579.319824
5096.741847	0.691216	0.336651	304.134949
5096.742755	0.419062	0.336651	684.643677
5096.743648	0.099012	0.336651	773.061768
5096.744599	0.098661	0.336651	866.888245
5096.745520	0.099130	0.336651	958.186646
5096.746430	0.099785	0.336651	1048.991089
5096.747319	0.099276	0.336651	1137.247559
5096.748265	0.098492	0.336651	1230.421387
5096.749159	0.099481	0.336651	1319.357544
5096.750075	0.099891	0.336651	1410.858032
5096.750970	0.099218	0.336651	1499.657715
5096.751894	0.098445	0.336651	1590.620728
5097.778134	0.686605	0.349682	306.225952
5097.779063	0.396921	0.349682	674.965942
5097.779962	0.099705	0.349682	764.600342
5097.780910	0.098566	0.349682	858.040588
5097.781820	0.099214	0.349682	948.325195
5097.782724	0.100074	0.349682	1038.792480
5097.783609	0.099917	0.349682	1127.218994
5097.784552	0.098368	0.349682	1219.979980
5097.785461	0.099412	0.349682	1310.345093
5097.786353	0.099906	0.349682	1399.461304
5097.787281	0.098745	0.349682	1491.096802
5097.788188	0.098243	0.349682	1580.203613
5098.779636	0.719678	0.332792	344.725647
5098.780536	0.407948	0.332792	711.878906
5098.781477	0.098848	0.332792	804.894531
5098.782375	0.099672	0.332792	894.399658
5098.783291	0.099749	0.332792	985.769287
5098.784185	0.100104	0.332792	1075.262085
5098.785128	0.098536	0.332792	1168.181885
5098.786044	0.099309	0.332792	1259.149048
5098.786960	0.099789	0.332792	1350.555664
5098.787849	0.099749	0.332792	1439.232178
5098.788811	0.098848	0.332792	1534.323608
5098.789701	0.098936	0.332792	1622.376221
5099.809234	0.714089	0.346097	315.627472
5099.810130	0.416089	0.346097	688.443115
5099.811083	0.097939	0.346097	781.779419
5099.811991	0.099042	0.346097	871.709351
5099.812885	0.099965	0.346097	961.077698
5099.813828	0.098950	0.346097	1054.387695
5099.814727	0.098738	0.346097	1143.152954
5099.815631	0.100485	0.346097	1233.991089
5099.816523	0.099294	0.346097	1322.561768
5099.817468	0.098350	0.346097	1415.502197
5099.818379	0.098756	0.346097	1505.468994
5099.819288	0.099408	0.346097	1595.830811
5100.819421	0.704916	0.329162	319.326874
5100.820323	0.410343	0.329162	689.456238
5100.821288	0.097863	0.329162	783.893616
5100.822205	0.099694	0.329162	875.312622
5100.823125	0.099606	0.329162	966.949890
5100.824013	0.099287	0.329162	1055.116821
5100.824955	0.098987	0.329162	1148.362427
5100.825863	0.099342	0.329162	1238.564941
5100.826760	0.099811	0.329162	1328.095215
5100.827670	0.098954	0.329162	1418.143188
5100.828618	0.099133	0.329162	1512.121582
5100.829517	0.099371	0.329162	1601.456421
5101.840396	0.633984	0.345928	320.162109
5101.841312	0.379852	0.345928	668.106812
5101.842207	0.099119	0.345928	756.817993
5101.843103	0.099470	0.345928	845.943298
5101.844042	0.098558	0.345928	938.489563
5101.844953	0.099254	0.345928	1028.910034
5101.845851	0.099163	0.345928	1117.958008
5101.846772	0.098983	0.345928	1209.121460
5101.847686	0.098434	0.345928	1299.089966
5101.848593	0.099650	0.345928	1389.472168
5101.849484	0.099789	0.345928	1478.384033
5101.850425	0.098302	0.345928	1570.886230
5102.858199	0.691586	0.325843	307.755646
5102.859111	0.410823	0.325843	682.426025
5102.860007	0.099554	0.325843	771.626831
5102.860933	0.099771	0.325843	864.014343
5102.861839	0.099774	0.325843	954.409729
5102.862741	0.099778	0.325843	1044.409302
5102.863626	0.099653	0.325843	1132.602539
5102.864559	0.098767	0.325843	1224.752197
5102.865472	0.099840	0.325843	1315.906250
5102.866390	0.099987	0.325843	1407.693970
5102.867290	0.099474	0.325843	1497.220459
5102.868242	0.098507	0.325843	1590.999146
5103.871448	0.686272	0.345714	310.194916
5103.872355	0.413774	0.345714	685.488281
5103.873296	0.098027	0.345714	777.731995
5103.874217	0.098390	0.345714	868.349121
5103.875115	0.099313	0.345714	957.531982
5103.876005	0.099902	0.345714	1046.445068
5103.876944	0.098540	0.345714	1138.974121
5103.877835	0.098800	0.345714	1227.005005
5103.878731	0.099294	0.345714	1315.972778
5103.879620	0.099236	0.345714	1404.193481
5103.880573	0.098405	0.345714	1497.973022
5103.881481	0.099781	0.345714	1588.574585
5104.895948	0.733231	0.330310	321.155273
5104.896903	0.414239	0.330310	716.754028
5104.897814	0.098339	0.330310	806.340515
5104.898724	0.099320	0.330310	896.721802
5104.899618	0.099708	0.330310	985.860962
5104.900572	0.098485	0.330310	1079.815796
5104.901478	0.100397	0.330310	1170.775269
5104.902369	0.099771	0.330310	1259.670776
5104.903296	0.098698	0.330310	1351.163330
5104.904206	0.098364	0.330310	1440.674805
5104.905103	0.099910	0.330310	1530.293823
5104.905996	0.099415	0.330310	1619.071655
5105.904616	0.645139	0.347120	299.344574
5105.905519	0.404949	0.347120	665.013306
5105.906477	0.098485	0.347120	759.362061
5105.907380	0.098383	0.347120	848.201538
5105.908273	0.100280	0.347120	937.751160
5105.909165	0.100371	0.347120	1027.282227
5105.910106	0.098511	0.347120	1119.980835
5105.911007	0.098844	0.347120	1209.039307
5105.911915	0.100173	0.347120	1299.996704
5105.912803	0.099254	0.347120	1388.134399
5105.913750	0.098452	0.347120	1481.368530
5105.914652	0.099331	0.347120	1570.965088
5106.932168	0.719659	0.333646	311.612549
5106.933124	0.332637	0.333646	629.613281
5106.934029	0.097965	0.333646	718.271667
5106.934931	0.100690	0.333646	809.093750
5106.935819	0.099624	0.333646	897.559875
5106.936764	0.098423	0.333646	990.569458
5106.937666	0.098822	0.333646	1079.706909
5106.938569	0.100397	0.333646	1170.365112
5106.939464	0.098947	0.333646	1258.922241
5106.940406	0.098276	0.333646	1351.498535
5106.941314	0.099100	0.333646	1441.481689
5106.942210	0.100096	0.333646	1531.168091
5107.937784	0.603644	0.345940	292.767273
5107.938681	0.386539	0.345940	639.493042
5107.939620	0.098273	0.345940	731.771118
5107.940527	0.098368	0.345940	820.990845
5107.941425	0.099774	0.345940	910.588074
5107.942317	0.100305	0.345940	1000.060303
5107.943264	0.098511	0.345940	1093.349976
5107.944160	0.098921	0.345940	1181.983154
5107.945055	0.099935	0.345940	1271.425293
5107.945939	0.098925	0.345940	1358.874634
5107.946877	0.098518	0.345940	1451.284546
5107.947775	0.098910	0.345940	1540.105713
5108.967376	0.700173	0.336897	309.476593
5108.968283	0.410427	0.336897	681.734131
5108.969166	0.098654	0.336897	768.845215
5108.970111	0.098416	0.336897	861.847900
5108.971027	0.098958	0.336897	952.492981
5108.971930	0.099492	0.336897	1042.334473
5108.972863	0.098972	0.336897	1134.675537
5108.973766	0.098258	0.336897	1223.402588
5108.974667	0.099987	0.336897	1313.490479
5108.975557	0.099269	0.336897	1401.839722
5108.976502	0.098320	0.336897	1494.752441
5108.977404	0.098738	0.336897	1583.813965
5109.971409	0.719703	0.343990	318.108887
5109.972300	0.401532	0.343990	675.873901
5109.973255	0.097969	0.343990	769.434082
5109.974156	0.099042	0.343990	858.670715
5109.975058	0.099738	0.343990	948.633972
5109.975997	0.099152	0.343990	1041.737305
5109.976906	0.098423	0.343990	1131.203735
5109.977813	0.099115	0.343990	1221.101074
5109.978710	0.099485	0.343990	1310.338989
5109.979650	0.098738	0.343990	1403.152466
5109.980552	0.098719	0.343990	1492.197388
5109.981457	0.099543	0.343990	1582.284180
5111.001540	0.718513	0.335825	311.116211
5111.002468	0.397002	0.335825	679.534058
5111.003408	0.097841	0.335825	771.504211
5111.004319	0.099316	0.335825	861.981445
5111.005219	0.100419	0.335825	952.358276
5111.006145	0.098807	0.335825	1043.853882
5111.007045	0.098602	0.335825	1132.595947
5111.007947	0.099690	0.335825	1222.516235
5111.008837	0.099239	0.335825	1310.839355
5111.009783	0.098419	0.335825	1403.943848
5111.010683	0.098851	0.335825	1492.910034
5111.011577	0.100129	0.335825	1582.425659
5112.007136	0.658748	0.341626	298.412628
5112.008040	0.411321	0.341626	670.246582
5112.008928	0.098302	0.341626	757.538757
5112.009874	0.098672	0.341626	850.882324
5112.010775	0.100042	0.341626	941.019714
5112.011677	0.100408	0.341626	1031.587524
5112.012614	0.098826	0.341626	1124.187256
5112.013524	0.098613	0.341626	1213.925293
5112.014426	0.099840	0.341626	1303.981079
5112.015319	0.099628	0.341626	1392.948608
5112.016271	0.098353	0.341626	1486.580933
5112.017171	0.098738	0.341626	1575.444946
5113.036262	0.675575	0.330753	306.035461
5113.037186	0.405293	0.330753	680.526123
5113.038081	0.099005	0.330753	769.135742
5113.039014	0.098668	0.330753	861.193176
5113.039921	0.098551	0.330753	950.578979
5113.040828	0.099624	0.330753	1040.937988
5113.041729	0.099335	0.330753	1130.438599
5113.042658	0.098558	0.330753	1221.999268
5113.043553	0.098888	0.330753	1310.504028
5113.044452	0.100280	0.330753	1400.655273
5113.045336	0.100364	0.330753	1489.376831
5113.046277	0.098522	0.330753	1582.085815
5114.043354	0.674956	0.337440	303.055267
5114.044255	0.412240	0.337440	674.483521
5114.045140	0.098972	0.337440	762.073853
5114.046090	0.098730	0.337440	855.867798
5114.046994	0.098914	0.337440	945.285645
5114.047895	0.099851	0.337440	1035.251465
5114.048807	0.099269	0.337440	1125.784668
5114.049721	0.098401	0.337440	1215.723022
5114.050634	0.099170	0.337440	1306.265137
5114.051527	0.099873	0.337440	1395.451782
5114.052470	0.098401	0.337440	1488.243774
5114.053368	0.098317	0.337440	1576.532104
5115.070943	0.721589	0.332050	326.879974
5115.071847	0.405432	0.332050	693.390625
5115.072735	0.098811	0.332050	781.134827
5115.073698	0.098965	0.332050	876.437988
5115.074595	0.099192	0.332050	965.413086
5115.075488	0.099207	0.332050	1054.004517
5115.076431	0.098925	0.332050	1147.290405
5115.077339	0.099360	0.332050	1237.509644
5115.078254	0.099108	0.332050	1328.193115
5115.079141	0.099229	0.332050	1416.208740
5115.080099	0.098496	0.332050	1510.567993
5115.081002	0.098848	0.332050	1599.827393
5116.079113	0.553374	0.336296	275.026886
5116.080033	0.394600	0.336296	638.058472
5116.080932	0.099434	0.336296	727.449280
5116.081818	0.099617	0.336296	815.709656
5116.082761	0.098474	0.336296	908.570740
5116.083669	0.099137	0.336296	998.587097
5116.084567	0.099921	0.336296	1088.315796
5116.085496	0.098987	0.336296	1180.274536
5116.086400	0.098364	0.336296	1269.195801
5116.087302	0.099657	0.336296	1359.086426
5116.088194	0.100459	0.336296	1448.695801
5116.089134	0.098408	0.336296	1541.199463
5117.105615	0.713888	0.332590	314.110687
5117.106573	0.401364	0.332590	698.616943
5117.107475	0.098921	0.332590	787.843567
5117.108405	0.099294	0.332590	880.187378
5117.109292	0.099503	0.332590	968.446716
5117.110224	0.099250	0.332590	1060.948120
5117.111127	0.100192	0.332590	1151.421143
5117.112018	0.099862	0.332590	1240.398193
5117.112955	0.098500	0.332590	1332.692505
5117.113865	0.098958	0.332590	1422.743896
5117.114785	0.099034	0.332590	1513.855591
5117.115678	0.099470	0.332590	1602.682495
5118.113742	0.718436	0.337557	314.675110
5118.114636	0.416316	0.337557	686.861572
5118.115607	0.097925	0.337557	781.946533
5118.116513	0.098796	0.337557	871.456055
5118.117405	0.099987	0.337557	960.644104
5118.118297	0.098848	0.337557	1048.816162
5118.119249	0.098298	0.337557	1142.396240
5118.120154	0.100298	0.337557	1233.165771
5118.121051	0.100181	0.337557	1323.027832
5118.121977	0.099086	0.337557	1414.781128
5118.122876	0.098328	0.337557	1503.177734
5118.123773	0.099675	0.337557	1592.586426
5119.140812	0.718550	0.330786	315.443359
5119.141703	0.401096	0.330786	672.820068
5119.142642	0.098016	0.330786	764.857422
5119.143563	0.099595	0.330786	856.584167
5119.144464	0.099851	0.330786	946.549988
5119.145371	0.099071	0.330786	1036.407471
5119.146302	0.098448	0.330786	1128.062988
5119.147209	0.099170	0.330786	1218.010132
5119.148099	0.099760	0.330786	1306.796143
5119.149040	0.098459	0.330786	1399.446533
5119.149942	0.099012	0.330786	1488.755737
5119.150836	0.099423	0.330786	1577.639526
5120.147914	0.718092	0.333428	313.088135
5120.148863	0.387352	0.333428	680.685425
5120.149778	0.098752	0.333428	771.043884
5120.150678	0.099514	0.333428	860.606628
5120.151607	0.098862	0.333428	952.449707
5120.152518	0.098353	0.333428	1042.049561
5120.153426	0.099932	0.333428	1132.787476
5120.154327	0.099525	0.333428	1222.459595
5120.155268	0.098401	0.333428	1315.054810
5120.156167	0.098544	0.333428	1403.645630
5120.157069	0.099899	0.333428	1493.754272
5120.157957	0.099276	0.333428	1581.911499
5121.176012	0.717770	0.329472	315.100922
5121.176922	0.404154	0.329472	682.881104
5121.177811	0.099280	0.329472	771.140808
5121.178773	0.098529	0.329472	865.925781
5121.179674	0.099276	0.329472	955.373535
5121.180566	0.100397	0.329472	1044.927368
5121.181487	0.099049	0.329472	1136.151611
5121.182400	0.098361	0.329472	1225.954834
5121.183298	0.099163	0.329472	1315.002808
5121.184195	0.099792	0.329472	1404.516602
5121.185132	0.098295	0.329472	1496.618652
5121.186036	0.098430	0.329472	1585.599487
5122.182614	0.686199	0.335555	306.044647
5122.183524	0.410936	0.335555	679.996704
5122.184411	0.098657	0.335555	767.505676
5122.185361	0.098324	0.335555	860.913452
5122.186267	0.098983	0.335555	950.592163
5122.187164	0.100356	0.335555	1040.611938
5122.188095	0.099001	0.335555	1132.782349
5122.189006	0.098496	0.335555	1222.512329
5122.189910	0.099558	0.335555	1312.512817
5122.190800	0.100371	0.335555	1401.843140
5122.191741	0.098547	0.335555	1494.576172
5122.192647	0.098536	0.335555	1583.850098
5123.211754	0.650724	0.329899	296.730072
5123.212672	0.411914	0.329899	674.867187
5123.213584	0.099144	0.329899	765.286804
5123.214477	0.099540	0.329899	854.175842
5123.215430	0.098383	0.329899	947.934448
5123.216340	0.098826	0.329899	1037.865845
5123.217240	0.099789	0.329899	1127.675781
5123.218174	0.098643	0.329899	1219.807983
5123.219071	0.098313	0.329899	1307.994751
5123.219971	0.099884	0.329899	1397.890381
5123.220859	0.099258	0.329899	1486.031372
5123.221796	0.098412	0.329899	1578.243286
5124.216792	0.686287	0.335756	307.456421
5124.217700	0.403861	0.335756	674.162292
5124.218590	0.099558	0.335756	762.768982
5124.219532	0.098947	0.335756	855.976624
5124.220451	0.100199	0.335756	948.059509
5124.221376	0.099313	0.335756	1039.923828
5124.222270	0.098943	0.335756	1128.378784
5124.223220	0.099825	0.335756	1223.212891
5124.224138	0.099510	0.335756	1314.563477
5124.225026	0.099456	0.335756	1402.880005
5124.225961	0.099269	0.335756	1495.696289
5124.226872	0.099760	0.335756	1586.577148
5125.246415	0.723896	0.327788	320.686127
5125.247309	0.411907	0.327788	688.930725
5125.248272	0.097903	0.327788	783.211182
5125.249167	0.098921	0.327788	871.745361
5125.250070	0.099771	0.327788	961.838135
5125.250959	0.099086	0.327788	1049.925293
5125.251907	0.098394	0.327788	1143.202393
5125.252819	0.099086	0.327788	1233.568604
5125.253714	0.099624	0.327788	1322.732056
5125.254654	0.098906	0.327788	1415.703979
5125.255554	0.098313	0.327788	1504.185669
5125.256453	0.099825	0.327788	1593.928711
5126.251980	0.728767	0.342697	320.657532
5126.252968	0.398771	0.342697	714.643066
5126.253897	0.098386	0.342697	806.043884
5126.254787	0.099324	0.342697	894.442017
5126.255760	0.099236	0.342697	990.998474
5126.256658	0.099851	0.342697	1080.664795
5126.257582	0.100287	0.342697	1173.329834
5126.258471	0.099917	0.342697	1262.156006
5126.259414	0.099873	0.342697	1356.336304
5126.260329	0.099679	0.342697	1447.542603
5126.261224	0.099144	0.342697	1536.276733
5126.262158	0.098807	0.342697	1628.562866
5127.280081	0.718184	0.328699	318.155334
5127.281033	0.321573	0.328699	624.293274
5127.281940	0.097881	0.328699	713.071228
5127.282833	0.099811	0.328699	802.202271
5127.283720	0.100715	0.328699	891.536743
5127.284661	0.098372	0.328699	984.104370
5127.285568	0.098848	0.328699	1073.759155
5127.286471	0.099492	0.328699	1163.600586
5127.287360	0.100082	0.328699	1252.573242
5127.288312	0.098423	0.328699	1346.271851
5127.289218	0.099745	0.328699	1436.640747
5127.290109	0.099456	0.328699	1525.255615
5128.289254	0.663424	0.344582	305.175079
5128.290160	0.400422	0.344582	667.957764
5128.291045	0.099364	0.344582	755.894897
5128.291984	0.098749	0.344582	848.619995
5128.292891	0.099467	0.344582	938.836182
5128.293806	0.099404	0.344582	1029.791138
5128.294704	0.098800	0.344582	1118.513550
5128.295668	0.098837	0.344582	1213.792114
5128.296569	0.099316	0.344582	1303.276245
5128.297460	0.099368	0.344582	1391.812866
5128.298396	0.098500	0.344582	1484.008667
5128.299310	0.098811	0.344582	1574.321899
5129.312209	0.712419	0.325299	317.739075
5129.313113	0.417341	0.325299	695.015625
5129.314054	0.098427	0.325299	787.634949
5129.314970	0.098372	0.325299	877.743286
5129.315882	0.099763	0.325299	968.727295
5129.316783	0.099551	0.325299	1058.422607
5129.317719	0.098771	0.325299	1150.872070
5129.318621	0.098723	0.325299	1239.920410
5129.319520	0.099760	0.325299	1329.604248
5129.320405	0.099221	0.325299	1417.415039
5129.321332	0.098522	0.325299	1508.744629
5129.322244	0.099305	0.325299	1599.311157
5130.326989	0.707230	0.340365	309.766846
5130.327950	0.404593	0.340365	698.581177
5130.328864	0.098734	0.340365	788.824158
5130.329756	0.100291	0.340365	878.283325
5130.330675	0.099814	0.340365	970.012817
5130.331562	0.099283	0.340365	1058.077271
5130.332506	0.099408	0.340365	1151.918335
5130.333427	0.099261	0.340365	1243.338135
5130.334322	0.099430	0.340365	1332.327881
5130.335249	0.099353	0.340365	1424.428101
5130.336175	0.099419	0.340365	1516.489990
5130.337102	0.099309	0.340365	1608.549561
5131.343318	0.704092	0.324703	315.433105
5131.344306	0.400712	0.324703	711.336243
5131.345210	0.098540	0.324703	800.416443
5131.346111	0.100492	0.324703	890.959656
5131.346995	0.099734	0.324703	979.124390
5131.347935	0.098441	0.324703	1071.659058
5131.348834	0.099661	0.324703	1161.254028
5131.349733	0.099620	0.324703	1250.812744
5131.350659	0.098474	0.324703	1341.999756
5131.351560	0.098599	0.324703	1430.837158
5131.352462	0.099701	0.324703	1520.767334
5131.353349	0.099287	0.324703	1608.834961
5132.364814	0.702235	0.337750	356.735443
5132.365730	0.389897	0.337750	713.881531
5132.366649	0.099082	0.337750	804.937927
5132.367538	0.099496	0.337750	893.389709
5132.368490	0.098840	0.337750	987.485718
5132.369395	0.099639	0.337750	1077.658691
5132.370324	0.099741	0.337750	1170.318237
5132.371212	0.099935	0.337750	1259.060791
5132.372157	0.099192	0.337750	1352.797119
5132.373058	0.100148	0.337750	1443.030151
5132.373983	0.099532	0.337750	1535.097656
5132.374872	0.098793	0.337750	1622.924438
5133.374444	0.653079	0.323095	300.416168
5133.375384	0.412720	0.323095	688.372681
5133.376275	0.099419	0.323095	776.954956
5133.377208	0.098536	0.323095	868.889404
5133.378116	0.098584	0.323095	958.403687
5133.379015	0.100250	0.323095	1048.528687
5133.379910	0.099595	0.323095	1137.666016
5133.380870	0.098221	0.323095	1231.958618
5133.381773	0.098954	0.323095	1321.313965
5133.382669	0.099642	0.323095	1410.593506
5133.383593	0.099258	0.323095	1502.307739
5133.384502	0.098185	0.323095	1591.557739
5134.403017	0.718832	0.334580	316.285980
5134.404008	0.398357	0.334580	711.057739
5134.404910	0.098522	0.334580	799.924316
5134.405807	0.100419	0.334580	889.999878
5134.406698	0.099258	0.334580	978.438599
5134.407634	0.098676	0.334580	1070.798950
5134.408546	0.099148	0.334580	1161.221924
5134.409440	0.099814	0.334580	1250.456055
5134.410376	0.098610	0.334580	1342.754639
5134.411279	0.098196	0.334580	1431.425415
5134.412184	0.099408	0.334580	1521.389648
5134.413072	0.099364	0.334580	1609.624878
5135.405017	0.705099	0.319410	317.999603
5135.405918	0.397218	0.319410	675.893066
5135.406875	0.098068	0.319410	769.743774
5135.407773	0.098591	0.319410	858.278748
5135.408679	0.099825	0.319410	948.720581
5135.409570	0.099192	0.319410	1037.100586
5135.410510	0.098580	0.319410	1129.766113
5135.411420	0.098624	0.319410	1219.514160
5135.412327	0.100100	0.319410	1310.304932
5135.413215	0.099009	0.319410	1398.224731
5135.414156	0.098214	0.319410	1490.644165
5135.415059	0.098862	0.319410	1579.916870
5136.441306	0.686627	0.334677	308.295624
5136.442213	0.414778	0.334677	684.499146
5136.443099	0.098503	0.334677	771.773193
5136.444051	0.098328	0.334677	865.381104
5136.444954	0.098987	0.334677	954.766174
5136.445854	0.100151	0.334677	1044.902344
5136.446784	0.098749	0.334677	1136.738647
5136.447690	0.098236	0.334677	1225.740479
5136.448592	0.099646	0.334677	1315.621216
5136.449479	0.099646	0.334677	1404.007202
5136.450437	0.098112	0.334677	1497.998047
5136.451337	0.098654	0.334677	1586.786255
5137.438168	0.700745	0.324018	314.634338
5137.439067	0.405901	0.324018	679.539246
5137.440014	0.098588	0.324018	772.901733
5137.440921	0.098723	0.324018	862.443604
5137.441821	0.101158	0.324018	953.486206
5137.442713	0.099869	0.324018	1042.569702
5137.443665	0.098452	0.324018	1136.296143
5137.444564	0.098602	0.324018	1224.939575
5137.445459	0.099895	0.324018	1314.345581
5137.446346	0.099276	0.324018	1402.403442
5137.447279	0.098115	0.324018	1493.944946
5137.448188	0.099122	0.324018	1584.047119
5138.479049	0.717927	0.333106	313.734192
5138.480010	0.331315	0.333106	632.127563
5138.480918	0.097961	0.333106	721.076538
5138.481814	0.100239	0.333106	810.890930
5138.482702	0.098877	0.333106	898.693665
5138.483641	0.098401	0.333106	991.092102
5138.484551	0.098793	0.333106	1080.993530
5138.485452	0.099441	0.333106	1170.589844
5138.486364	0.098928	0.333106	1260.812378
5138.487286	0.098397	0.333106	1351.534668
5138.488192	0.099536	0.333106	1441.714355
5138.489087	0.099796	0.333106	1531.031860
5139.471313	0.704813	0.326810	313.641907
5139.472228	0.401345	0.326810	680.872803
5139.473115	0.098884	0.326810	768.583130
5139.474081	0.098613	0.326810	863.843567
5139.474978	0.099291	0.326810	952.907410
5139.475869	0.100481	0.326810	1042.435913
5139.476801	0.099049	0.326810	1134.749634
5139.477702	0.098551	0.326810	1223.544067
5139.478605	0.098983	0.326810	1312.925903
5139.479493	0.098617	0.326810	1400.497803
5139.480454	0.098210	0.326810	1494.878052
5139.481361	0.099338	0.326810	1584.978027
5140.515782	0.727676	0.325730	317.994324
5140.516765	0.397277	0.325730	708.517212
5140.517674	0.098646	0.325730	798.186646
5140.518580	0.099745	0.325730	888.555481
5140.519482	0.099283	0.325730	978.109131
5140.520403	0.098481	0.325730	1068.810547
5140.521313	0.099500	0.325730	1159.355103
5140.522203	0.099760	0.325730	1248.141113
5140.523129	0.098544	0.325730	1339.392578
5140.524036	0.098427	0.325730	1428.665405
5140.524934	0.099620	0.325730	1518.124512
5140.525828	0.098859	0.325730	1606.504150
5141.505493	0.700031	0.328288	311.513580
5141.506393	0.391040	0.328288	663.449585
5141.507345	0.098016	0.328288	756.761169
5141.508243	0.099547	0.328288	846.154480
5141.509137	0.099327	0.328288	934.953186
5141.510079	0.098558	0.328288	1027.795166
5141.511002	0.098617	0.328288	1118.818604
5141.511905	0.099562	0.328288	1208.722900
5141.512796	0.099360	0.328288	1297.252930
5141.513741	0.098221	0.328288	1390.072144
5141.514649	0.099397	0.328288	1480.324585
5141.515549	0.099243	0.328288	1569.643433
5142.551002	0.700459	0.320811	315.907013
5142.551901	0.382906	0.320811	660.139954
5142.552851	0.098408	0.320811	753.627747
5142.553749	0.098525	0.320811	842.103516
5142.554650	0.100265	0.320811	932.442200
5142.555542	0.099668	0.320811	1021.346008
5142.556475	0.098599	0.320811	1113.338501
5142.557380	0.098756	0.320811	1202.712769
5142.558283	0.099664	0.320811	1292.709595
5142.559174	0.098749	0.320811	1380.694702
5142.560130	0.098284	0.320811	1474.653931
5142.561033	0.098602	0.320811	1563.691772
5143.539658	0.723614	0.329158	317.666748
5143.540617	0.405249	0.329158	706.300537
5143.541527	0.099097	0.329158	796.478516
5143.542453	0.099653	0.329158	888.757507
5143.543341	0.098676	0.329158	976.381348
5143.544299	0.098961	0.329158	1071.186157
5143.545193	0.100225	0.329158	1160.786987
5143.546083	0.099023	0.329158	1248.917847
5143.547030	0.098390	0.329158	1342.093018
5143.547919	0.100280	0.329158	1431.241577
5143.548842	0.099258	0.329158	1522.856567
5143.549743	0.099763	0.329158	1612.743164
5144.585686	0.700642	0.320823	312.486389
5144.586661	0.383280	0.320823	686.184448
5144.587576	0.099177	0.320823	776.931641
5144.588472	0.100269	0.320823	866.772278
5144.589410	0.098749	0.320823	959.398621
5144.590311	0.098679	0.320823	1048.308594
5144.591211	0.099939	0.320823	1138.253662
5144.592102	0.099569	0.320823	1226.969727
5144.593038	0.098353	0.320823	1319.028442
5144.593937	0.098514	0.320823	1407.592896
5144.594844	0.099833	0.320823	1498.141235
5144.595753	0.099254	0.320823	1588.363281
5145.574349	0.727793	0.327088	319.501129
5145.575247	0.422523	0.327088	698.926941
5145.576198	0.097877	0.327088	792.008179
5145.577109	0.099100	0.327088	882.288574
5145.578009	0.099833	0.327088	972.138062
5145.578895	0.099170	0.327088	1060.002563
5145.579835	0.098335	0.327088	1152.437378
5145.580744	0.099100	0.327088	1242.519531
5145.581638	0.099910	0.327088	1331.838745
5145.582577	0.098723	0.327088	1424.539795
5145.583478	0.098210	0.327088	1513.027466
5145.584377	0.100170	0.327088	1603.079956
5146.620369	0.700195	0.317033	311.586914
5146.621282	0.396416	0.317033	673.514771
5146.622167	0.098672	0.317033	760.839355
5146.623117	0.098416	0.317033	854.334106
5146.624022	0.099049	0.317033	943.973511
5146.624915	0.099957	0.317033	1033.235352
5146.625845	0.098610	0.317033	1124.942261
5146.626749	0.098408	0.317033	1213.903320
5146.627649	0.099415	0.317033	1303.377075
5146.628541	0.099459	0.317033	1392.094727
5146.629483	0.098137	0.317033	1484.540039
5146.630380	0.098811	0.317033	1573.173584
5147.609097	0.689711	0.325569	346.924469
5147.610011	0.399792	0.325569	712.334778
5147.610918	0.100042	0.325569	803.072449
5147.611808	0.099437	0.325569	891.571594
5147.612751	0.098313	0.325569	984.280762
5147.613660	0.098866	0.325569	1074.149902
5147.614555	0.099818	0.325569	1163.487061
5147.615458	0.098738	0.325569	1252.647339
5147.616381	0.098170	0.325569	1343.258423
5147.617297	0.098723	0.325569	1433.688843
5147.618188	0.100338	0.325569	1523.090088
5147.619119	0.098397	0.325569	1614.697876
5148.655563	0.713979	0.320989	314.864960
5148.656540	0.398452	0.320989	704.152710
5148.657436	0.099053	0.320989	792.903931
5148.658324	0.100137	0.320989	881.825317
5148.659258	0.099368	0.320989	974.634705
5148.660166	0.099254	0.320989	1064.757446
5148.661076	0.099639	0.320989	1155.428589
5148.661968	0.099225	0.320989	1243.937134
5148.662937	0.098207	0.320989	1339.099487
5148.663839	0.098829	0.320989	1428.243530
5148.664733	0.099653	0.320989	1517.333618
5148.665621	0.099067	0.320989	1605.305420
5149.644743	0.721912	0.324276	314.753448
5149.645729	0.391318	0.324276	700.593384
5149.646633	0.098068	0.324276	789.246521
5149.647525	0.100159	0.324276	878.588074
5149.648418	0.098976	0.324276	966.973511
5149.649365	0.098445	0.324276	1060.200806
5149.650278	0.099503	0.324276	1151.047241
5149.651178	0.099983	0.324276	1241.031860
5149.652111	0.098690	0.324276	1333.109863
5149.653016	0.098152	0.324276	1421.937256
5149.653931	0.099207	0.324276	1512.711182
5149.654826	0.099679	0.324276	1601.923828
5150.690768	0.690894	0.320566	306.756714
5150.691670	0.412438	0.320566	678.775574
5150.692557	0.098346	0.320566	766.008423
5150.693521	0.099716	0.320566	862.134216
5150.694427	0.099478	0.320566	952.260864
5150.695313	0.099888	0.320566	1040.761353
5150.696252	0.098397	0.320566	1133.156372
5150.697164	0.099664	0.320566	1224.050171
5150.698082	0.098745	0.320566	1314.698242
5150.698968	0.099496	0.320566	1402.851562
5150.699908	0.098749	0.320566	1495.675415
5150.700813	0.099452	0.320566	1585.679443
5151.679453	0.673477	0.321943	301.717499
5151.680352	0.415129	0.321943	674.918823
5151.681241	0.098719	0.321943	762.680420
5151.682187	0.098229	0.321943	855.604858
5151.683081	0.098701	0.321943	943.843689
5151.683975	0.100419	0.321943	1033.618042
5151.684864	0.100214	0.321943	1122.708008
5151.685814	0.098511	0.321943	1216.293213
5151.686724	0.099199	0.321943	1306.564453
5151.687625	0.100371	0.321943	1396.998779
5151.688560	0.098580	0.321943	1489.171387
5151.689462	0.098357	0.321943	1577.889404
5152.725475	0.658729	0.322894	298.404358
5152.726399	0.402272	0.322894	670.103394
5152.727307	0.099060	0.322894	760.049927
5152.728197	0.098877	0.322894	848.050415
5152.729147	0.098379	0.322894	941.510376
5152.730060	0.099067	0.322894	1031.958862
5152.730961	0.099558	0.322894	1121.660767
5152.731887	0.098269	0.322894	1212.657959
5152.732787	0.098203	0.322894	1301.040771
5152.733682	0.098906	0.322894	1389.561890
5152.734570	0.099298	0.322894	1477.738647
5152.735497	0.098225	0.322894	1568.793335
5153.714633	0.727584	0.325444	316.499115
5153.715618	0.342532	0.325444	653.892883
5153.716522	0.098522	0.325444	742.956543
5153.717422	0.099895	0.325444	832.862061
5153.718309	0.099514	0.325444	921.131104
5153.719246	0.098555	0.325444	1013.476868
5153.720150	0.099789	0.325444	1103.685913
5153.721044	0.099393	0.325444	1192.543579
5153.721960	0.098665	0.325444	1282.920288
5153.722881	0.098621	0.325444	1373.749878
5153.723777	0.099968	0.325444	1463.321411
5153.724669	0.099803	0.325444	1552.346069
5154.760150	0.724160	0.325972	322.251251
5154.761042	0.404319	0.325972	682.903687
5154.761995	0.097705	0.325972	776.016602
5154.762900	0.098632	0.325972	865.278198
5154.763802	0.099672	0.325972	955.182007
5154.764706	0.099174	0.325972	1044.834961
5154.765639	0.098287	0.325972	1136.537109
5154.766548	0.098947	0.325972	1226.479492
5154.767445	0.099781	0.325972	1315.983521
5154.768393	0.098632	0.325972	1409.486328
5154.769293	0.098394	0.325972	1498.040527
5154.770190	0.099697	0.325972	1587.468994
5155.750855	0.727621	0.319329	316.515076
5155.751786	0.418239	0.319329	705.895142
5155.752721	0.098112	0.319329	797.629456
5155.753635	0.099448	0.319329	888.525146
5155.754528	0.100437	0.319329	978.215393
5155.755489	0.098701	0.319329	1073.067261
5155.756398	0.099467	0.319329	1163.482422
5155.757299	0.099408	0.319329	1253.048950
5155.758186	0.099335	0.319329	1341.158813
5155.759123	0.098009	0.319329	1432.993286
5155.760031	0.099891	0.319329	1523.694580
5155.760922	0.099635	0.319329	1612.469360
5156.793291	0.717920	0.325641	315.884735
5156.794190	0.414316	0.325641	688.355225
5156.795142	0.097694	0.325641	781.359985
5156.796053	0.098767	0.325641	871.336792
5156.796958	0.099390	0.325641	961.284424
5156.797867	0.098954	0.325641	1051.233521
5156.798791	0.098218	0.325641	1141.986694
5156.799694	0.099298	0.325641	1231.652832
5156.800586	0.099781	0.325641	1320.657959
5156.801520	0.098390	0.325641	1412.554077
5156.802430	0.098324	0.325641	1502.028931
5156.803332	0.099847	0.325641	1592.091309
5157.787591	0.719824	0.318298	313.843353
5157.788568	0.392747	0.318298	697.556763
5157.789482	0.098577	0.318298	787.655823
5157.790380	0.099646	0.318298	877.137939
5157.791316	0.098789	0.318298	969.604492
5157.792219	0.098306	0.318298	1058.374512
5157.793123	0.098943	0.318298	1147.818848
5157.794010	0.099196	0.318298	1235.805298
5157.794958	0.098064	0.318298	1328.769897
5157.795862	0.098328	0.318298	1417.658081
5157.796764	0.099624	0.318298	1507.518921
5157.797651	0.099016	0.318298	1595.346191
5158.825936	0.706095	0.329126	313.506165
5158.826838	0.404524	0.329126	678.386719
5158.827776	0.098236	0.329126	770.532166
5158.828683	0.098328	0.329126	859.715332
5158.829588	0.099155	0.329126	949.450867
5158.830484	0.099207	0.329126	1038.339966
5158.831423	0.098339	0.329126	1130.679932
5158.832324	0.098547	0.329126	1219.471069
5158.833223	0.099631	0.329126	1309.039673
5158.834111	0.099379	0.329126	1397.287964
5158.835048	0.098430	0.329126	1489.517090
5158.835964	0.098566	0.329126	1579.803223
5159.825379	0.672913	0.315349	306.848145
5159.826287	0.372535	0.315349	645.110291
5159.827178	0.098445	0.315349	732.824646
5159.828114	0.098459	0.315349	824.982727
5159.829029	0.099163	0.315349	915.716492
5159.829932	0.099532	0.315349	1005.594299
5159.830823	0.098899	0.315349	1093.713257
5159.831778	0.098448	0.315349	1187.731567
5159.832687	0.098815	0.315349	1277.554077
5159.833585	0.099606	0.315349	1367.000000
5159.834526	0.098518	0.315349	1459.705444
5159.835419	0.098416	0.315349	1547.590454
5160.857614	0.733707	0.330016	369.788452
5160.858533	0.383577	0.330016	722.295410
5160.859434	0.098848	0.330016	811.357178
5160.860325	0.099305	0.330016	899.838318
5160.861268	0.098489	0.330016	992.713257
5160.862177	0.098514	0.330016	1082.262817
5160.863079	0.100031	0.330016	1172.490356
5160.863967	0.099287	0.330016	1260.657349
5160.864913	0.098353	0.330016	1353.699585
5160.865820	0.098943	0.330016	1443.440796
5160.866710	0.099968	0.330016	1532.412598
5160.867638	0.099269	0.330016	1624.534058
5161.864192	0.729309	0.311635	358.090759
5161.865115	0.401884	0.311635	729.029297
5161.866012	0.099111	0.311635	817.932129
5161.866899	0.100151	0.311635	906.766418
5161.867854	0.098602	0.311635	1000.931641
5161.868744	0.099049	0.311635	1089.085327
5161.869645	0.100221	0.311635	1179.384399
5161.870538	0.099459	0.311635	1268.201538
5161.871483	0.098353	0.311635	1361.145386
5161.872388	0.098866	0.311635	1450.619141
5161.873295	0.099639	0.311635	1540.991455
5161.874222	0.098558	0.311635	1632.354980
5162.888173	0.714723	0.330955	338.778656
5162.889130	0.376926	0.330955	699.497070
5162.890024	0.098917	0.330955	787.929077
5162.890914	0.099580	0.330955	876.555359
5162.891855	0.098789	0.330955	969.515869
5162.892763	0.099613	0.330955	1059.964478
5162.893691	0.099104	0.330955	1151.932983
5162.894579	0.099020	0.330955	1239.862549
5162.895535	0.099858	0.330955	1335.327148
5162.896435	0.099474	0.330955	1424.853638
5162.897327	0.099738	0.330955	1513.819580
5162.898271	0.099104	0.330955	1607.373779
5163.902427	0.677761	0.310962	307.703583
5163.903328	0.412610	0.310962	679.465088
5163.904279	0.098053	0.310962	772.713501
5163.905181	0.098767	0.310962	861.801392
5163.906086	0.099987	0.310962	952.289246
5163.906978	0.099705	0.310962	1041.225708
5163.907927	0.098467	0.310962	1134.670654
5163.908831	0.098811	0.310962	1223.995850
5163.909729	0.099840	0.310962	1313.652222
5163.910657	0.098676	0.310962	1405.223145
5163.911561	0.098269	0.310962	1494.058350
5163.912454	0.099327	0.310962	1582.757690
5164.919248	0.717788	0.327313	317.262329
5164.920142	0.382145	0.327313	658.899780
5164.921108	0.097954	0.327313	753.523437
5164.922009	0.099419	0.327313	843.099915
5164.922903	0.099053	0.327313	931.653076
5164.923848	0.098705	0.327313	1024.929199
5164.924755	0.098368	0.327313	1114.148926
5164.925657	0.099210	0.327313	1203.636475
5164.926551	0.099866	0.327313	1292.916382
5164.927483	0.098177	0.327313	1384.417847
5164.928389	0.098547	0.327313	1473.701782
5164.929295	0.099591	0.327313	1563.931274
5165.940176	0.702740	0.313722	310.611298
5165.941145	0.340411	0.313722	640.469910
5165.942052	0.098196	0.313722	729.533508
5165.942946	0.099950	0.313722	818.888794
5165.943876	0.098822	0.313722	910.793274
5165.944779	0.098251	0.313722	999.513672
5165.945683	0.099628	0.313722	1089.577148
5165.946571	0.099126	0.313722	1177.601074
5165.947519	0.098496	0.313722	1270.975342
5165.948422	0.098577	0.313722	1359.990112
5165.949331	0.099115	0.313722	1450.085693
5165.950220	0.098950	0.313722	1538.052368
5166.952410	0.714675	0.329710	318.745178
5166.953309	0.406531	0.329710	684.216309
5166.954263	0.097910	0.329710	777.622620
5166.955170	0.099196	0.329710	867.593018
5166.956060	0.099229	0.329710	955.906372
5166.956987	0.098855	0.329710	1047.544922
5166.957890	0.098247	0.329710	1136.261963
5166.958803	0.099448	0.329710	1227.058228
5166.959700	0.098921	0.329710	1315.790283
5166.960634	0.098306	0.329710	1407.607788
5166.961535	0.098441	0.329710	1496.303223
5166.962443	0.099459	0.329710	1586.612183
5167.977984	0.593335	0.311139	293.107483
5167.978914	0.386356	0.311139	652.418762
5167.979843	0.099313	0.311139	744.680298
5167.980734	0.099503	0.311139	833.337646
5167.981693	0.099470	0.311139	928.729614
5167.982585	0.099584	0.311139	1017.558289
5167.983476	0.100009	0.311139	1106.665894
5167.984405	0.099049	0.311139	1198.682495
5167.985322	0.099591	0.311139	1290.007446
5167.986224	0.099672	0.311139	1379.911255
5167.987116	0.099906	0.311139	1469.027466
5167.988052	0.098339	0.311139	1561.072388
5168.985058	0.676282	0.327728	308.384491
5168.985963	0.381577	0.327728	653.711792
5168.986923	0.098053	0.327728	747.842651
5168.987823	0.098562	0.327728	836.548462
5168.988728	0.099576	0.327728	926.665100
5168.989615	0.099375	0.327728	1014.810730
5168.990546	0.098386	0.327728	1106.408325
5168.991451	0.098558	0.327728	1195.603638
5168.992362	0.099653	0.327728	1286.387817
5168.993254	0.098705	0.327728	1374.432495
5168.994196	0.098243	0.327728	1466.977783
5168.995103	0.099075	0.327728	1556.838501
5170.014179	0.677238	0.309987	304.079681
5170.015114	0.366321	0.309987	646.589600
5170.016015	0.099001	0.309987	735.789917
5170.016903	0.099042	0.309987	823.739014
5170.017857	0.098990	0.309987	918.175903
5170.018761	0.099730	0.309987	1008.332031
5170.019650	0.099368	0.309987	1096.669922
5170.020580	0.098555	0.309987	1188.325806
5170.021503	0.098774	0.309987	1279.494629
5170.022408	0.099309	0.309987	1369.369385
5170.023298	0.099159	0.309987	1457.620850
5170.024253	0.098141	0.309987	1551.345337
5171.019726	0.714503	0.322705	316.524902
5171.020710	0.378589	0.322705	689.056396
5171.021615	0.098408	0.322705	778.115845
5171.022513	0.099397	0.322705	867.374329
5171.023462	0.098474	0.322705	960.826294
5171.024356	0.098448	0.322705	1048.839233
5171.025258	0.099141	0.322705	1138.264038
5171.026141	0.099401	0.322705	1226.034790
5171.027079	0.098269	0.322705	1318.211182
5171.027989	0.098752	0.322705	1408.075928
5171.028885	0.099946	0.322705	1497.627808
5171.029799	0.099587	0.322705	1588.650635
5172.049363	0.714705	0.309214	319.472961
5172.050338	0.375634	0.309214	685.715698
5172.051259	0.098485	0.309214	776.420471
5172.052158	0.099910	0.309214	866.239258
5172.053078	0.099082	0.309214	957.394714
5172.053993	0.098452	0.309214	1047.478394
5172.054903	0.099613	0.309214	1138.126221
5172.055795	0.099261	0.309214	1226.667480
5172.056744	0.098452	0.309214	1320.098633
5172.057646	0.098357	0.309214	1408.816650
5172.058543	0.099631	0.309214	1498.185913
5172.059431	0.099327	0.309214	1586.388672
5173.054467	0.716030	0.315853	353.718964
5173.055389	0.393197	0.315853	716.246582
5173.056308	0.099243	0.315853	807.451050
5173.057206	0.099478	0.315853	896.781860
5173.058162	0.099261	0.315853	991.675842
5173.059062	0.099935	0.315853	1081.617676
5173.059981	0.099558	0.315853	1173.111572
5173.060871	0.099957	0.315853	1262.073486
5173.061827	0.099071	0.315853	1356.785400
5173.062737	0.099357	0.315853	1447.199951
5173.063635	0.100342	0.315853	1537.306885
5173.064571	0.099108	0.315853	1630.071655
5174.084062	0.672407	0.306354	308.634918
5174.084966	0.384800	0.306354	656.493958
5174.085854	0.098837	0.306354	744.260925
5174.086807	0.098507	0.306354	838.138184
5174.087718	0.098884	0.306354	928.221741
5174.088615	0.099532	0.306354	1017.502380
5174.089531	0.098727	0.306354	1107.936157
5174.090444	0.098339	0.306354	1197.719360
5174.091350	0.099840	0.306354	1288.174438
5174.092241	0.099459	0.306354	1376.792603
5174.093176	0.098247	0.306354	1468.653564
5174.094075	0.098405	0.306354	1557.119263
5175.089620	0.704125	0.313246	306.998383
5175.090571	0.321694	0.313246	612.929687
5175.091483	0.098840	0.313246	703.072083
5175.092403	0.100291	0.313246	795.339355
5175.093293	0.099946	0.313246	884.291565
5175.094237	0.099313	0.313246	978.042786
5175.095145	0.099174	0.313246	1068.092407
5175.096039	0.099745	0.313246	1157.264282
5175.096960	0.099159	0.313246	1248.589600
5175.097883	0.099064	0.313246	1340.025391
5175.098785	0.099869	0.313246	1430.107544
5175.099674	0.099338	0.313246	1518.419312
5176.118730	0.718396	0.308726	313.220673
5176.119692	0.388184	0.308726	686.653320
5176.120593	0.098112	0.308726	775.051819
5176.121488	0.099639	0.308726	864.228455
5176.122378	0.099397	0.308726	952.691772
5176.123314	0.098353	0.308726	1044.750488
5176.124220	0.098998	0.308726	1134.442505
5176.125120	0.099694	0.308726	1224.166748
5176.126044	0.098939	0.308726	1315.586548
5176.126952	0.098331	0.308726	1404.871338
5176.127864	0.099489	0.308726	1495.604858
5176.128755	0.099459	0.308726	1584.223022
5177.124833	0.663728	0.314193	301.332520
5177.125731	0.409794	0.314193	669.327271
5177.126688	0.098199	0.314193	763.304138
5177.127590	0.099108	0.314193	852.699219
5177.128484	0.099481	0.314193	941.635437
5177.129373	0.099642	0.314193	1030.217529
5177.130322	0.098602	0.314193	1123.791138
5177.131225	0.099283	0.314193	1213.444092
5177.132116	0.100031	0.314193	1302.571289
5177.133033	0.098796	0.314193	1393.167603
5177.133947	0.099031	0.314193	1483.681763
5177.134848	0.099144	0.314193	1573.010742
5178.153941	0.704619	0.308694	314.964752
5178.154848	0.410566	0.308694	687.348511
5178.155781	0.098749	0.308694	779.481140
5178.156708	0.098408	0.308694	870.705566
5178.157621	0.100027	0.308694	962.030090
5178.158523	0.099423	0.308694	1051.709229
5178.159467	0.098489	0.308694	1144.682617
5178.160369	0.098617	0.308694	1233.635132
5178.161265	0.099877	0.308694	1323.124634
5178.162153	0.098925	0.308694	1410.969604
5178.163093	0.098533	0.308694	1503.590332
5178.164006	0.098899	0.308694	1593.885010
5179.160015	0.694794	0.314165	306.404022
5179.160921	0.385946	0.314165	656.071167
5179.161807	0.098873	0.314165	743.672913
5179.162755	0.098492	0.314165	837.043701
5179.163674	0.099056	0.314165	928.076538
5179.164602	0.099836	0.314165	1020.724731
5179.165498	0.098870	0.314165	1109.311890
5179.166446	0.098394	0.314165	1202.588989
5179.167355	0.098646	0.314165	1292.258423
5179.168244	0.099280	0.314165	1380.518188
5179.169168	0.098342	0.314165	1471.386475
5179.170072	0.098126	0.314165	1560.092529
5180.189662	0.681079	0.305609	305.123444
5180.190581	0.378600	0.305609	653.056702
5180.191477	0.099723	0.305609	742.408447
5180.192410	0.099316	0.305609	835.070679
5180.193312	0.098551	0.305609	923.963684
5180.194209	0.100023	0.305609	1013.684509
5180.195101	0.099349	0.305609	1102.304199
5180.196062	0.098580	0.305609	1197.039917
5180.196958	0.098646	0.305609	1285.427002
5180.197854	0.099532	0.305609	1374.608154
5180.198742	0.099045	0.305609	1462.560425
5180.199671	0.098397	0.305609	1553.971436
5181.194701	0.713892	0.312428	312.684540
5181.195651	0.318409	0.312428	615.173462
5181.196561	0.098137	0.312428	704.478333
5181.197462	0.100082	0.312428	794.652039
5181.198356	0.101016	0.312428	884.960022
5181.199307	0.098687	0.312428	978.810913
5181.200204	0.098833	0.312428	1067.464111
5181.201103	0.100298	0.312428	1157.631836
5181.201988	0.099086	0.312428	1245.322632
5181.202932	0.098185	0.312428	1338.009155
5181.203842	0.099408	0.312428	1428.470459
5181.204734	0.099789	0.312428	1517.482056
5182.224338	0.703506	0.306406	311.653107
5182.225231	0.418268	0.306406	685.166260
5182.226178	0.097983	0.306406	777.956543
5182.227085	0.099591	0.306406	868.285645
5182.227980	0.101067	0.306406	958.740540
5182.228909	0.099203	0.306406	1050.900024
5182.229816	0.098621	0.306406	1140.348877
5182.230717	0.099514	0.306406	1230.011108
5182.231604	0.099386	0.306406	1318.166504
5182.232557	0.098437	0.306406	1411.977417
5182.233460	0.098635	0.306406	1501.045044
5182.234361	0.099331	0.306406	1590.542358
5183.229902	0.704857	0.315506	310.842010
5183.230809	0.412372	0.315506	684.863281
5183.231697	0.099207	0.315506	772.958679
5183.232664	0.098610	0.315506	868.314209
5183.233572	0.099518	0.315506	958.676392
5183.234468	0.099712	0.315506	1048.018311
5183.235413	0.098987	0.315506	1141.560791
5183.236307	0.098218	0.315506	1229.367432
5183.237209	0.099657	0.315506	1319.258057
5183.238101	0.099778	0.315506	1408.259888
5183.239029	0.098273	0.315506	1499.456909
5183.239930	0.098401	0.315506	1588.116089
5184.259538	0.690205	0.303812	306.451050
5184.260444	0.418868	0.303812	685.945801
5184.261333	0.099269	0.303812	774.195740
5184.262281	0.098672	0.303812	867.736694
5184.263186	0.098826	0.303812	957.173950
5184.264095	0.099628	0.303812	1047.735474
5184.264982	0.099353	0.303812	1135.861572
5184.265924	0.098262	0.303812	1228.424072
5184.266837	0.099404	0.303812	1319.180176
5184.267728	0.099474	0.303812	1407.811401
5184.268660	0.098588	0.303812	1499.695068
5184.269569	0.098086	0.303812	1588.855225
5185.264586	0.718960	0.316485	312.028595
5185.265529	0.385646	0.316485	675.692505
5185.266450	0.097866	0.316485	765.827271
5185.267360	0.099360	0.316485	856.245178
5185.268252	0.099620	0.316485	945.106567
5185.269196	0.098599	0.316485	1038.183716
5185.270111	0.098840	0.316485	1128.622559
5185.271006	0.099097	0.316485	1217.314087
5185.271892	0.099078	0.316485	1305.097534
5185.272822	0.098236	0.316485	1396.457031
5185.273730	0.099653	0.316485	1486.942261
5185.274620	0.099551	0.316485	1575.542480
5186.294230	0.714251	0.302378	315.698730
5186.295182	0.353005	0.302378	651.759888
5186.296078	0.098002	0.302378	739.569397
5186.296978	0.099529	0.302378	829.145325
5186.297868	0.099606	0.302378	917.794434
5186.298803	0.098514	0.302378	1009.905396
5186.299702	0.098910	0.302378	1098.825439
5186.300611	0.099547	0.302378	1189.313721
5186.301500	0.098965	0.302378	1277.293457
5186.302445	0.098251	0.302378	1370.140381
5186.303353	0.099551	0.302378	1460.532471
5186.304247	0.099122	0.302378	1549.147827
5187.299338	0.717253	0.318733	360.061188
5187.300245	0.380402	0.318733	705.085449
5187.301167	0.099152	0.318733	796.503235
5187.302066	0.099415	0.318733	885.877563
5187.303015	0.098811	0.318733	979.649231
5187.303922	0.099056	0.318733	1069.493408
5187.304813	0.099214	0.318733	1157.892944
5187.305737	0.098650	0.318733	1249.045410
5187.306655	0.098676	0.318733	1339.629517
5187.307549	0.099093	0.318733	1428.218628
5187.308435	0.099756	0.318733	1516.602295
5187.309373	0.098646	0.318733	1609.132446
5188.327888	0.700525	0.303208	310.332520
5188.328876	0.364600	0.303208	670.556946
5188.329781	0.099045	0.303208	760.193054
5188.330677	0.099869	0.303208	849.676025
5188.331624	0.098800	0.303208	943.239685
5188.332516	0.098372	0.303208	1030.987183
5188.333418	0.099679	0.303208	1120.897583
5188.334309	0.099009	0.303208	1209.114380
5188.335253	0.098361	0.303208	1301.966797
5188.336160	0.098705	0.303208	1391.492065
5188.337066	0.098947	0.303208	1481.137573
5188.337954	0.098540	0.303208	1568.641113
5189.336072	0.562808	0.317186	276.338531
5189.336980	0.398075	0.317186	637.790588
5189.337904	0.099126	0.317186	729.382996
5189.338797	0.098826	0.317186	817.634338
5189.339758	0.100038	0.317186	913.770691
5189.340665	0.098990	0.317186	1003.555054
5189.341557	0.099456	0.317186	1092.269409
5189.342488	0.099133	0.317186	1184.562500
5189.343405	0.099353	0.317186	1275.669189
5189.344321	0.099745	0.317186	1367.035522
5189.345208	0.099152	0.317186	1454.983032
5189.346158	0.098771	0.317186	1548.815186
5190.361040	0.706956	0.295550	310.353485
5190.361987	0.397017	0.295550	686.328186
5190.362900	0.098514	0.295550	776.271851
5190.363801	0.099694	0.295550	866.095764
5190.364734	0.099543	0.295550	958.969788
5190.365637	0.098430	0.295550	1047.852295
5190.366544	0.099591	0.295550	1138.181396
5190.367431	0.099811	0.295550	1226.713623
5190.368380	0.098386	0.295550	1320.082153
5190.369282	0.098434	0.295550	1408.869507
5190.370172	0.099573	0.295550	1497.489258
5190.371060	0.099163	0.295550	1585.545654
5191.372779	0.645022	0.315107	298.645172
5191.373688	0.400935	0.315107	663.095093
5191.374579	0.099990	0.315107	752.186401
5191.375529	0.098676	0.315107	845.928162
5191.376422	0.099635	0.315107	934.902222
5191.377309	0.101085	0.315107	1024.564819
5191.378242	0.099082	0.315107	1117.008301
5191.379166	0.098932	0.315107	1208.421387
5191.380072	0.099683	0.315107	1298.733887
5191.380959	0.099525	0.315107	1387.012695
5191.381899	0.098269	0.315107	1479.385620
5191.382808	0.098965	0.315107	1569.344604
5192.392669	0.676681	0.296154	304.506409
5192.393573	0.392651	0.296154	659.463257
5192.394516	0.098174	0.296154	752.041199
5192.395425	0.098463	0.296154	841.544189
5192.396330	0.099628	0.296154	931.707275
5192.397220	0.099489	0.296154	1020.252075
5192.398174	0.098452	0.296154	1114.175415
5192.399071	0.098496	0.296154	1202.526367
5192.399968	0.099313	0.296154	1291.609863
5192.400852	0.098650	0.296154	1378.816406
5192.401800	0.098262	0.296154	1471.968506
5192.402704	0.098459	0.296154	1560.975830
5193.411018	0.719341	0.308279	315.790619
5193.411990	0.384177	0.308279	689.210937
5193.412885	0.098983	0.308279	777.800842
5193.413775	0.099701	0.308279	866.534668
5193.414711	0.098474	0.308279	958.706421
5193.415621	0.098555	0.308279	1048.391235
5193.416530	0.099774	0.308279	1139.085937
5193.417420	0.098925	0.308279	1227.128784
5193.418359	0.098339	0.308279	1319.468750
5193.419269	0.098983	0.308279	1409.543457
5193.420160	0.099294	0.308279	1498.014771
5193.421085	0.098606	0.308279	1589.225342
5194.424333	0.720732	0.295647	364.690613
5194.425252	0.373136	0.295647	707.602539
5194.426155	0.099218	0.295647	797.195984
5194.427042	0.099324	0.295647	885.296143
5194.427982	0.098503	0.295647	977.889343
5194.428885	0.098760	0.295647	1067.069458
5194.429789	0.099664	0.295647	1157.166016
5194.430676	0.098657	0.295647	1244.674927
5194.431624	0.098181	0.295647	1337.750610
5194.432537	0.099034	0.295647	1428.169067
5194.433429	0.099104	0.295647	1516.569824
5194.434362	0.098617	0.295647	1608.579468
5195.448785	0.690765	0.306342	308.081360
5195.449688	0.401206	0.306342	670.370422
5195.450574	0.098258	0.306342	757.427063
5195.451530	0.098394	0.306342	851.491333
5195.452433	0.099053	0.306342	940.935974
5195.453330	0.100199	0.306342	1030.814453
5195.454265	0.098851	0.306342	1123.240479
5195.455167	0.098481	0.306342	1212.070801
5195.456066	0.099785	0.306342	1301.777710
5195.456955	0.099379	0.306342	1390.125366
5195.457897	0.098481	0.306342	1482.894897
5195.458796	0.098873	0.306342	1571.781982
5196.455437	0.706267	0.291139	356.664856
5196.456358	0.365032	0.291139	692.859131
5196.457277	0.099364	0.291139	784.174683
5196.458172	0.099100	0.291139	872.869507
5196.459124	0.099749	0.291139	967.830139
5196.460040	0.099529	0.291139	1058.998535
5196.460966	0.099170	0.291139	1150.829834
5196.461852	0.098829	0.291139	1238.392578
5196.462809	0.099012	0.291139	1333.147461
5196.463723	0.098778	0.291139	1423.430664
5196.464618	0.099705	0.291139	1512.666260
5196.465558	0.098829	0.291139	1605.565796
5197.487055	0.700866	0.307603	312.586029
5197.488035	0.404073	0.307603	708.578003
5197.488950	0.099155	0.307603	799.305054
5197.489853	0.099946	0.307603	889.556580
5197.490787	0.098950	0.307603	981.976074
5197.491694	0.098756	0.307603	1071.547852
5197.492601	0.100470	0.307603	1162.674072
5197.493489	0.099562	0.307603	1251.084961
5197.494434	0.098372	0.307603	1344.046143
5197.495342	0.098888	0.307603	1433.836426
5197.496236	0.099492	0.307603	1522.782471
5197.497151	0.098694	0.307603	1613.087402
5198.487554	0.714910	0.293777	353.880280
5198.488478	0.377186	0.293777	702.400391
5198.489381	0.098844	0.293777	791.656494
5198.490268	0.099642	0.293777	880.039246
5198.491212	0.098921	0.293777	973.420593
5198.492113	0.099225	0.293777	1062.822144
5198.493012	0.099375	0.293777	1152.160278
5198.493901	0.099679	0.293777	1240.774902
5198.494857	0.098423	0.293777	1334.867187
5198.495761	0.099247	0.293777	1424.586304
5198.496653	0.099067	0.293777	1512.954346
5198.497579	0.098851	0.293777	1604.490723
5199.524826	0.690645	0.303880	308.718109
5199.525729	0.388173	0.303880	659.237976
5199.526617	0.098716	0.303880	746.897644
5199.527568	0.098430	0.303880	840.504761
5199.528480	0.099192	0.303880	930.967773
5199.529378	0.099939	0.303880	1020.712952
5199.530295	0.098888	0.303880	1111.393188
5199.531225	0.098328	0.303880	1202.837891
5199.532135	0.099247	0.303880	1293.152466
5199.533037	0.099338	0.303880	1382.755737
5199.534002	0.098342	0.303880	1477.656006
5199.534897	0.098287	0.303880	1565.623169
5200.520716	0.729408	0.296605	367.621613
5200.521643	0.394717	0.296605	733.524048
5200.522555	0.100012	0.296605	824.735168
5200.523447	0.100067	0.296605	913.995056
5200.524386	0.098782	0.296605	1006.751099
5200.525296	0.100056	0.296605	1097.802246
5200.526193	0.100155	0.296605	1187.641357
5200.527079	0.098895	0.296605	1275.262573
5200.528022	0.098397	0.296605	1368.051147
5200.528921	0.099408	0.296605	1457.418945
5200.529815	0.099229	0.296605	1546.129272
5200.530749	0.098621	0.296605	1638.240967
5201.561561	0.663889	0.304867	298.086243
5201.562470	0.415811	0.304867	676.057983
5201.563371	0.098500	0.304867	764.806274
5201.564310	0.098485	0.304867	857.283813
5201.565216	0.099478	0.304867	947.410461
5201.566118	0.100302	0.304867	1037.882446
5201.567050	0.098767	0.304867	1129.933350
5201.567956	0.098793	0.304867	1219.439575
5201.568859	0.099683	0.304867	1309.453003
5201.569748	0.100042	0.304867	1398.389893
5201.570700	0.098672	0.304867	1492.325562
5201.571599	0.099298	0.304867	1581.594604
5202.553318	0.720835	0.299417	335.188263
5202.554271	0.406227	0.299417	722.322388
5202.555189	0.099247	0.299417	813.430969
5202.556088	0.100228	0.299417	903.536194
5202.557022	0.098826	0.299417	995.839355
5202.557923	0.098778	0.299417	1084.838379
5202.558833	0.100294	0.299417	1176.106079
5202.559726	0.099481	0.299417	1264.942749
5202.560686	0.098423	0.299417	1359.428711
5202.561597	0.098906	0.299417	1449.532349
5202.562489	0.099752	0.299417	1538.511353
5202.563423	0.099020	0.299417	1630.995850
5203.597777	0.686232	0.298515	306.059326
5203.598681	0.391974	0.298515	660.403687
5203.599571	0.098763	0.298515	748.303162
5203.600527	0.098481	0.298515	842.451416
5203.601440	0.098881	0.298515	932.729431
5203.602337	0.100042	0.298515	1022.466675
5203.603262	0.099543	0.298515	1114.544312
5203.604167	0.098595	0.298515	1203.772705
5203.605079	0.099474	0.298515	1294.492920
5203.605973	0.100261	0.298515	1384.126465
5203.606911	0.098694	0.298515	1476.701294
5203.607807	0.098676	0.298515	1565.114624
5204.586977	0.682196	0.299788	309.716980
5204.587886	0.393292	0.299788	667.219604
5204.588787	0.099445	0.299788	756.819153
5204.589677	0.099510	0.299788	845.383484
5204.590635	0.098507	0.299788	939.753296
5204.591548	0.098906	0.299788	1030.054687
5204.592442	0.099294	0.299788	1118.823975
5204.593365	0.098577	0.299788	1209.810181
5204.594260	0.098309	0.299788	1297.796997
5204.595158	0.099056	0.299788	1386.749634
5204.596047	0.099598	0.299788	1475.292603
5204.596998	0.098188	0.299788	1568.669800
5205.633529	0.625803	0.300037	294.127502
5205.634461	0.409288	0.300037	675.584229
5205.635356	0.100254	0.300037	765.311462
5205.636243	0.099133	0.300037	853.242676
5205.637207	0.098643	0.300037	948.334106
5205.638120	0.099294	0.300037	1038.989990
5205.639019	0.099708	0.300037	1128.627686
5205.639958	0.098906	0.300037	1221.500610
5205.640856	0.098558	0.300037	1310.005981
5205.641755	0.099697	0.300037	1399.633789
5205.642644	0.099917	0.300037	1488.459961
5205.643581	0.098306	0.300037	1580.572388
5206.621648	0.718268	0.302426	315.319580
5206.622541	0.402469	0.302426	674.724854
5206.623486	0.098016	0.302426	767.350342
5206.624398	0.098928	0.302426	857.572876
5206.625303	0.099946	0.302426	948.024292
5206.626213	0.099349	0.302426	1038.432251
5206.627145	0.098481	0.302426	1130.216919
5206.628054	0.099573	0.302426	1220.728516
5206.628953	0.099657	0.302426	1310.320190
5206.629900	0.098470	0.302426	1403.571777
5206.630801	0.098599	0.302426	1492.409180
5206.631706	0.099514	0.302426	1582.469482
5207.668676	0.719315	0.301399	312.182770
5207.669635	0.325569	0.301399	624.403259
5207.670547	0.098009	0.301399	713.787476
5207.671456	0.100034	0.301399	804.718567
5207.672347	0.100009	0.301399	893.826172
5207.673301	0.098679	0.301399	987.966125
5207.674202	0.098760	0.301399	1076.948730
5207.675104	0.099525	0.301399	1166.720459
5207.675991	0.098965	0.301399	1254.502319
5207.676930	0.098364	0.301399	1346.866333
5207.677841	0.099155	0.301399	1437.196777
5207.678740	0.098958	0.301399	1526.159546
5208.656857	0.675256	0.302023	300.489075
5208.657787	0.388868	0.302023	662.136719
5208.658684	0.098914	0.302023	750.862183
5208.659620	0.098961	0.302023	843.489868
5208.660527	0.098437	0.302023	932.772705
5208.661431	0.099188	0.302023	1022.438843
5208.662320	0.098903	0.302023	1110.363281
5208.663271	0.098445	0.302023	1203.984375
5208.664176	0.098577	0.302023	1293.196289
5208.665073	0.099983	0.302023	1382.880981
5208.665970	0.099020	0.302023	1471.701660
5208.666914	0.098375	0.302023	1564.567871
5209.704409	0.692025	0.299489	306.567139
5209.705312	0.302256	0.299489	579.504150
5209.706209	0.098148	0.299489	667.543091
5209.707148	0.098643	0.299489	760.168457
5209.708065	0.098690	0.299489	850.667358
5209.708983	0.098855	0.299489	941.416260
5209.709871	0.098628	0.299489	1028.997803
5209.710823	0.098207	0.299489	1122.490723
5209.711714	0.098463	0.299489	1210.221436
5209.712603	0.098723	0.299489	1297.986328
5209.713530	0.098533	0.299489	1389.326172
5209.714455	0.098481	0.299489	1480.421509
5210.691533	0.704154	0.302918	307.715332
5210.692429	0.386356	0.302918	653.890503
5210.693389	0.097852	0.302918	747.828003
5210.694300	0.099331	0.302918	838.318604
5210.695200	0.099521	0.302918	927.887939
5210.696123	0.098687	0.302918	1018.975586
5210.697017	0.098350	0.302918	1106.900146
5210.697913	0.099419	0.302918	1195.979492
5210.698798	0.099749	0.302918	1284.256958
5210.699744	0.098452	0.302918	1377.392700
5210.700636	0.098763	0.302918	1465.489624
5210.701540	0.099437	0.302918	1555.380859
5211.739076	0.721428	0.300859	311.656982
5211.740027	0.378051	0.300859	671.183044
5211.740949	0.099207	0.300859	762.651489
5211.741858	0.099877	0.300859	853.439392
5211.742751	0.100686	0.300859	943.352051
5211.743703	0.098741	0.300859	1037.353882
5211.744614	0.099899	0.300859	1128.361572
5211.745502	0.100020	0.300859	1217.178955
5211.746444	0.098394	0.300859	1309.865723
5211.747351	0.098818	0.300859	1399.494019
5211.748247	0.099774	0.300859	1488.891724
5211.749132	0.099353	0.300859	1576.819092
5212.726238	0.689817	0.299743	307.658325
5212.727161	0.408534	0.299743	684.735107
5212.728060	0.099115	0.299743	773.839478
5212.728987	0.098983	0.299743	865.596863
5212.729906	0.098690	0.299743	956.293152
5212.730815	0.099906	0.299743	1047.107666
5212.731710	0.099697	0.299743	1136.336670
5212.732651	0.098533	0.299743	1229.055908
5212.733552	0.098573	0.299743	1317.870117
5212.734454	0.099705	0.299743	1407.803711
5212.735345	0.099137	0.299743	1496.134766
5212.736296	0.098533	0.299743	1589.839355
5213.773305	0.734670	0.298627	356.315186
5213.774226	0.403499	0.298627	727.937317
5213.775150	0.099170	0.298627	819.570312
5213.776039	0.099342	0.298627	907.885376
5213.777000	0.098903	0.298627	1002.930786
5213.777908	0.099686	0.298627	1093.445923
5213.778796	0.099232	0.298627	1181.564087
5213.779703	0.099012	0.298627	1271.368408
5213.780632	0.098833	0.298627	1363.184326
5213.781535	0.099474	0.298627	1453.009277
5213.782426	0.099913	0.298627	1542.032104
5213.783367	0.098650	0.298627	1634.861694
5214.762498	0.568619	0.300907	281.466583
5214.763427	0.388495	0.300907	642.378296
5214.764327	0.098976	0.300907	731.456543
5214.765216	0.100122	0.300907	820.465088
5214.766160	0.098676	0.300907	913.614807
5214.767061	0.099811	0.300907	1003.544312
5214.767958	0.099723	0.300907	1092.995728
5214.768898	0.099155	0.300907	1186.201660
5214.769798	0.098522	0.300907	1274.871216
5214.770690	0.099305	0.300907	1363.451660
5214.771580	0.099598	0.300907	1452.094238
5214.772520	0.098368	0.300907	1544.560059
5215.807959	0.721036	0.299582	324.466370
5215.808863	0.421329	0.299582	705.348083
5215.809812	0.098119	0.299582	798.462891
5215.810725	0.099445	0.299582	889.255798
5215.811641	0.100430	0.299582	981.249390
5215.812527	0.099858	0.299582	1069.723877
5215.813470	0.098899	0.299582	1162.985596
5215.814374	0.100170	0.299582	1253.538940
5215.815261	0.100686	0.299582	1342.847412
5215.816169	0.099749	0.299582	1433.419067
5215.817098	0.099108	0.299582	1525.490112
5215.818009	0.099287	0.299582	1615.940674
5216.798722	0.715635	0.298442	352.807953
5216.799647	0.405037	0.298442	727.466797
5216.800550	0.099785	0.298442	817.572815
5216.801443	0.100605	0.298442	907.413513
5216.802398	0.098796	0.298442	1001.764038
5216.803292	0.099192	0.298442	1090.441650
5216.804190	0.099869	0.298442	1180.124390
5216.805080	0.099218	0.298442	1268.427979
5216.806034	0.098401	0.298442	1362.302368
5216.806936	0.098624	0.298442	1451.261475
5216.807835	0.099591	0.298442	1540.793823
5216.808764	0.098665	0.298442	1632.453247
5217.842639	0.700748	0.303812	311.832977
5217.843630	0.402275	0.303812	710.487915
5217.844531	0.099518	0.303812	800.153442
5217.845423	0.099650	0.303812	889.040955
5217.846356	0.098796	0.303812	981.217957
5217.847270	0.099261	0.303812	1071.942993
5217.848195	0.100312	0.303812	1164.732056
5217.849085	0.099910	0.303812	1253.651611
5217.850034	0.099272	0.303812	1347.861206
5217.850930	0.099690	0.303812	1437.183350
5217.851826	0.099855	0.303812	1526.653198
5217.852754	0.098939	0.303812	1618.468750
5218.835449	0.566060	0.294942	273.972839
5218.836377	0.401620	0.294942	646.676025
5218.837278	0.099540	0.294942	736.361389
5218.838166	0.099137	0.294942	824.395020
5218.839118	0.098577	0.294942	918.239990
5218.840021	0.098998	0.294942	1007.635010
5218.840917	0.100386	0.294942	1097.580688
5218.841850	0.098800	0.294942	1189.761108
5218.842755	0.098423	0.294942	1278.833740
5218.843654	0.099100	0.294942	1367.924927
5218.844543	0.099159	0.294942	1456.077271
5218.845483	0.098430	0.294942	1548.601685
5219.875281	0.695687	0.304335	308.189453
5219.876263	0.411822	0.304335	712.599121
5219.877175	0.099609	0.304335	803.442871
5219.878069	0.099697	0.304335	892.572205
5219.879005	0.098936	0.304335	985.175903
5219.879918	0.099368	0.304335	1075.898560
5219.880821	0.100302	0.304335	1166.470825
5219.881710	0.099998	0.304335	1255.368652
5219.882658	0.098353	0.304335	1348.607544
5219.883557	0.099701	0.304335	1438.238647
5219.884444	0.100576	0.304335	1527.449707
5219.885363	0.098990	0.304335	1618.421997
5220.873188	0.650369	0.295493	302.421417
5220.874099	0.390370	0.295493	658.048340
5220.875020	0.097936	0.295493	748.247192
5220.875929	0.098390	0.295493	837.683594
5220.876835	0.099232	0.295493	927.587952
5220.877727	0.099445	0.295493	1016.292480
5220.878678	0.098452	0.295493	1109.920532
5220.879586	0.098774	0.295493	1199.607666
5220.880479	0.099305	0.295493	1288.287354
5220.881369	0.098840	0.295493	1376.255249
5220.882318	0.098514	0.295493	1469.745361
5220.883223	0.099291	0.295493	1559.603516
5221.906383	0.704429	0.306599	312.061920
5221.907283	0.408823	0.306599	680.002808
5221.908221	0.098405	0.306599	772.306274
5221.909124	0.098375	0.306599	861.139099
5221.910020	0.099529	0.306599	950.316895
5221.910904	0.100206	0.306599	1038.899292
5221.911845	0.098566	0.306599	1131.649536
5221.912744	0.098840	0.306599	1220.506958
5221.913648	0.099716	0.306599	1310.649902
5221.914536	0.099075	0.306599	1398.628296
5221.915497	0.098335	0.306599	1493.128174
5221.916411	0.098778	0.306599	1583.411377
5222.911986	0.603695	0.291558	282.529297
5222.912921	0.396280	0.291558	653.051575
5222.913821	0.099309	0.291558	742.429749
5222.914749	0.098881	0.291558	834.190979
5222.915658	0.098734	0.291558	923.940308
5222.916560	0.099899	0.291558	1014.048950
5222.917453	0.099565	0.291558	1102.960937
5222.918399	0.098577	0.291558	1196.214478
5222.919300	0.098851	0.291558	1285.279541
5222.920194	0.100009	0.291558	1374.687134
5222.921088	0.099456	0.291558	1463.600464
5222.922024	0.098372	0.291558	1555.676270
5223.939029	0.686323	0.307683	307.472839
5223.939937	0.391263	0.307683	662.739990
5223.940828	0.099042	0.307683	750.986206
5223.941798	0.098430	0.307683	846.463501
5223.942704	0.099155	0.307683	936.298157
5223.943596	0.100016	0.307683	1025.512329
5223.944518	0.098782	0.307683	1116.589111
5223.945429	0.098423	0.307683	1206.252319
5223.946340	0.099144	0.307683	1296.572754
5223.947238	0.099261	0.307683	1385.709595
5223.948163	0.098467	0.307683	1476.791382
5223.949074	0.098441	0.307683	1566.471313
5224.949710	0.718180	0.291211	312.408264
5224.950604	0.414833	0.291211	683.268738
5224.951557	0.097950	0.291211	776.615479
5224.952470	0.099045	0.291211	867.043945
5224.953378	0.100078	0.291211	957.914856
5224.954266	0.099353	0.291211	1046.140381
5224.955210	0.098503	0.291211	1139.127563
5224.956115	0.099108	0.291211	1228.819946
5224.957007	0.099163	0.291211	1317.272949
5224.957956	0.098361	0.291211	1410.617187
5224.958852	0.098287	0.291211	1498.682617
5224.959746	0.099803	0.291211	1587.906982
5225.970122	0.733257	0.303518	319.699982
5225.971077	0.381610	0.303518	684.137634
5225.971978	0.097866	0.303518	772.315063
5225.972880	0.099602	0.303518	862.156128
5225.973778	0.099309	0.303518	951.335693
5225.974715	0.098423	0.303518	1043.557861
5225.975628	0.098687	0.303518	1133.658691
5225.976532	0.099734	0.303518	1223.818115
5225.977422	0.099437	0.303518	1312.317261
5225.978379	0.098386	0.303518	1406.472900
5225.979289	0.098895	0.303518	1496.467529
5225.980184	0.099536	0.303518	1585.552368
5226.988497	0.714225	0.289878	317.830078
5226.989486	0.393409	0.289878	706.911987
5226.990388	0.099071	0.289878	796.274048
5226.991272	0.099990	0.289878	884.665405
5226.992211	0.098566	0.289878	977.218567
5226.993116	0.099866	0.289878	1067.597046
5226.994035	0.099814	0.289878	1159.326538
5226.994925	0.099554	0.289878	1247.929932
5226.995880	0.099803	0.289878	1343.242187
5226.996784	0.099536	0.289878	1433.222900
5226.997704	0.099635	0.289878	1524.887085
5226.998594	0.099316	0.289878	1613.278687
5228.002255	0.691549	0.303091	306.356232
5228.003162	0.412932	0.303091	680.885681
5228.004080	0.098412	0.303091	771.227783
5228.005024	0.098522	0.303091	864.232300
5228.005927	0.099163	0.303091	953.776123
5228.006821	0.100133	0.303091	1043.295044
5228.007768	0.098342	0.303091	1136.425171
5228.008671	0.098419	0.303091	1225.297729
5228.009566	0.099822	0.303091	1314.638184
5228.010454	0.099016	0.303091	1402.564453
5228.011383	0.098408	0.303091	1493.985718
5228.012293	0.099067	0.303091	1584.137085
5229.026794	0.604688	0.288891	283.598450
5229.027703	0.403997	0.288891	650.831299
5229.028642	0.098434	0.288891	743.260681
5229.029556	0.099631	0.288891	834.323730
5229.030481	0.099485	0.288891	926.347229
5229.031374	0.099302	0.288891	1015.023682
5229.032327	0.099239	0.288891	1109.598877
5229.033227	0.099708	0.288891	1199.336304
5229.034122	0.099767	0.288891	1288.627686
5229.035060	0.099122	0.288891	1381.604370
5229.035962	0.099921	0.288891	1471.732788
5229.036875	0.100155	0.288891	1563.174316
5230.036431	0.713705	0.304400	311.889008
5230.037373	0.339624	0.304400	631.814819
5230.038276	0.097885	0.304400	720.204529
5230.039172	0.099573	0.304400	809.421692
5230.040057	0.100635	0.304400	898.483459
5230.041003	0.098511	0.304400	991.674622
5230.041916	0.098979	0.304400	1082.042847
5230.042816	0.099628	0.304400	1171.707764
5230.043704	0.099276	0.304400	1259.864990
5230.044641	0.098331	0.304400	1352.001465
5230.045544	0.099031	0.304400	1441.426270
5230.046439	0.099104	0.304400	1530.124390
5231.064009	0.708600	0.285962	308.949554
5231.065003	0.397500	0.285962	704.064575
5231.065903	0.099265	0.285962	793.403198
5231.066794	0.100009	0.285962	882.510803
5231.067728	0.099430	0.285962	975.378357
5231.068637	0.099181	0.285962	1065.533813
5231.069534	0.099331	0.285962	1154.633789
5231.070419	0.099510	0.285962	1242.700562
5231.071350	0.098353	0.285962	1334.267456
5231.072261	0.099097	0.285962	1424.544556
5231.073161	0.099280	0.285962	1513.896362
5231.074047	0.099071	0.285962	1601.673340
5232.069577	0.731517	0.299860	316.015503
5232.070527	0.307797	0.299860	608.422302
5232.071441	0.097899	0.299860	697.902161
5232.072340	0.099767	0.299860	787.592529
5232.073228	0.099866	0.299860	876.273315
5232.074168	0.098353	0.299860	968.725403
5232.075078	0.098661	0.299860	1058.506836
5232.075982	0.099521	0.299860	1148.474243
5232.076867	0.098848	0.299860	1235.954468
5232.077812	0.098251	0.299860	1328.801392
5232.078720	0.099631	0.299860	1419.266602
5232.079609	0.099814	0.299860	1508.001709
5233.099215	0.713928	0.282961	314.128418
5233.100109	0.414543	0.282961	684.730225
5233.101069	0.098082	0.282961	778.889221
5233.101980	0.099921	0.282961	869.916931
5233.102871	0.099954	0.282961	958.975586
5233.103800	0.099042	0.282961	1050.985352
5233.104707	0.098511	0.282961	1140.334595
5233.105601	0.099738	0.282961	1229.500000
5233.106492	0.099521	0.282961	1318.173584
5233.107445	0.098247	0.282961	1411.802979
5233.108347	0.098888	0.282961	1500.999878
5233.109243	0.099727	0.282961	1590.354858
5234.104292	0.678644	0.300432	310.140228
5234.105228	0.398210	0.300432	682.865234
5234.106124	0.099419	0.300432	771.944580
5234.107055	0.098936	0.300432	864.053589
5234.107964	0.098617	0.300432	953.696411
5234.108871	0.099781	0.300432	1044.198242
5234.109762	0.099917	0.300432	1133.224243
5234.110719	0.098357	0.300432	1227.351807
5234.111622	0.098624	0.300432	1316.409546
5234.112526	0.099247	0.300432	1406.128662
5234.113416	0.099203	0.300432	1494.419189
5234.114353	0.098467	0.300432	1586.682617
5235.135438	0.724200	0.290333	317.923981
5235.136334	0.386613	0.290333	664.328857
5235.137277	0.098038	0.290333	756.778992
5235.138196	0.098895	0.290333	847.663757
5235.139101	0.100488	0.290333	938.605652
5235.140001	0.099485	0.290333	1028.142090
5235.140948	0.098390	0.290333	1121.317383
5235.141850	0.099104	0.290333	1210.709229
5235.142744	0.099613	0.290333	1299.763306
5235.143677	0.098368	0.290333	1391.540527
5235.144580	0.098350	0.290333	1480.350220
5235.145472	0.099694	0.290333	1569.276855
5236.138969	0.705106	0.300501	313.772247
5236.139869	0.415748	0.300501	687.945679
5236.140827	0.097859	0.300501	781.694458
5236.141732	0.099631	0.300501	871.860840
5236.142631	0.099401	0.300501	961.221985
5236.143565	0.098687	0.300501	1053.395142
5236.144481	0.098328	0.300501	1143.463257
5236.145380	0.099507	0.300501	1232.919922
5236.146267	0.099485	0.300501	1321.162964
5236.147212	0.098423	0.300501	1414.172607
5236.148113	0.099089	0.300501	1503.452148
5236.149010	0.099792	0.300501	1592.966064
5237.169610	0.728163	0.290337	318.935303
5237.170605	0.394153	0.290337	711.117432
5237.171510	0.098774	0.290337	800.508301
5237.172408	0.099390	0.290337	889.760193
5237.173341	0.098903	0.290337	982.036316
5237.174240	0.098547	0.290337	1070.630371
5237.175135	0.099705	0.290337	1159.865967
5237.176023	0.100074	0.290337	1248.732056
5237.176960	0.098324	0.290337	1340.861572
5237.177867	0.098745	0.290337	1430.423340
5237.178775	0.099415	0.290337	1520.692383
5237.179666	0.099478	0.290337	1609.326904
5238.174213	0.730858	0.300327	363.236511
5238.175137	0.402085	0.300327	734.763062
5238.176057	0.099342	0.300327	826.157715
5238.176957	0.099401	0.300327	915.618286
5238.177908	0.099203	0.300327	1009.960205
5238.178818	0.099441	0.300327	1100.451416
5238.179709	0.099840	0.300327	1189.408936
5238.180621	0.099119	0.300327	1279.805176
5238.181548	0.099565	0.300327	1372.102295
5238.182444	0.100118	0.300327	1461.808350
5238.183334	0.099397	0.300327	1550.271606
5238.184266	0.098987	0.300327	1642.527344
5239.204832	0.687023	0.289749	312.595337
5239.205736	0.417528	0.289749	690.040710
5239.206688	0.098181	0.289749	783.509155
5239.207588	0.098610	0.289749	872.257812
5239.208489	0.100232	0.289749	962.566772
5239.209375	0.099283	0.289749	1050.531860
5239.210324	0.098485	0.289749	1143.994263
5239.211232	0.099379	0.289749	1234.230103
5239.212133	0.099598	0.289749	1323.968262
5239.213066	0.098976	0.289749	1416.312744
5239.213965	0.098489	0.289749	1504.854126
5239.214880	0.099767	0.289749	1596.140747
5240.208837	0.719557	0.297230	313.007233
5240.209737	0.416459	0.297230	687.820068
5240.210697	0.097888	0.297230	781.792725
5240.211605	0.099298	0.297230	871.955383
5240.212493	0.100909	0.297230	961.562988
5240.213425	0.099023	0.297230	1053.852783
5240.214347	0.099280	0.297230	1145.388794
5240.215257	0.099375	0.297230	1235.820068
5240.216147	0.100188	0.297230	1324.987427
5240.217094	0.098295	0.297230	1418.072510
5240.218008	0.098921	0.297230	1508.486206
5240.218897	0.099207	0.297230	1596.680786
5241.240028	0.675575	0.288549	301.981995
5241.240947	0.419736	0.288549	687.719666
5241.241847	0.098741	0.288549	776.586975
5241.242769	0.098778	0.288549	867.660339
5241.243688	0.098489	0.288549	958.171509
5241.244597	0.100217	0.288549	1049.269043
5241.245488	0.099822	0.288549	1138.210205
5241.246422	0.098606	0.288549	1230.308105
5241.247326	0.098705	0.288549	1319.537231
5241.248221	0.099661	0.288549	1408.733521
5241.249110	0.100078	0.288549	1497.703003
5241.250046	0.098470	0.288549	1589.871338
5242.243019	0.714642	0.296368	315.157288
5242.244000	0.398690	0.296368	706.272339
5242.244910	0.098577	0.296368	795.977112
5242.245802	0.100005	0.296368	885.181458
5242.246741	0.098910	0.296368	978.057861
5242.247649	0.098892	0.296368	1067.851440
5242.248542	0.100052	0.296368	1157.198364
5242.249474	0.098877	0.296368	1249.351685
5242.250373	0.098654	0.296368	1338.041260
5242.251276	0.099705	0.296368	1428.074463
5242.252164	0.100122	0.296368	1516.982910
5242.253098	0.098687	0.296368	1609.156128
5243.274192	0.691271	0.288972	308.306763
5243.275092	0.398994	0.288972	667.401489
5243.276028	0.098353	0.288972	759.460144
5243.276937	0.098470	0.288972	848.969788
5243.277830	0.099474	0.288972	937.799927
5243.278714	0.099939	0.288972	1026.145996
5243.279651	0.098401	0.288972	1118.347656
5243.280557	0.098870	0.288972	1207.923584
5243.281464	0.100001	0.288972	1298.624634
5243.282352	0.098998	0.288972	1386.534668
5243.283302	0.098646	0.288972	1480.248657
5243.284209	0.099078	0.288972	1570.112793
5244.278219	0.713730	0.299530	312.613953
5244.279149	0.409779	0.299530	693.708496
5244.280080	0.098053	0.299530	784.995850
5244.280994	0.099503	0.299530	875.941772
5244.281884	0.100693	0.299530	965.558838
5244.282811	0.099009	0.299530	1057.339966
5244.283714	0.098778	0.299530	1146.536621
5244.284618	0.100463	0.299530	1237.354858
5244.285503	0.099899	0.299530	1325.765137
5244.286453	0.098588	0.299530	1419.423340
5244.287362	0.098972	0.299530	1509.389038
5244.288251	0.099459	0.299530	1597.808350
5245.308877	0.700466	0.285310	308.205200
5245.309862	0.389637	0.285310	691.998108
5245.310766	0.098954	0.285310	781.452393
5245.311663	0.100364	0.285310	871.478699
5245.312609	0.099064	0.285310	965.192993
5245.313508	0.098595	0.285310	1053.829834
5245.314403	0.099408	0.285310	1142.799927
5245.315292	0.099507	0.285310	1231.261475
5245.316230	0.098511	0.285310	1323.664551
5245.317139	0.099016	0.285310	1413.670166
5245.318043	0.099847	0.285310	1503.932251
5245.318933	0.098888	0.285310	1591.942505
5246.312939	0.617424	0.295360	287.102295
5246.313863	0.403118	0.295360	659.583008
5246.314754	0.100353	0.295360	748.997314
5246.315686	0.098826	0.295360	841.102844
5246.316603	0.098676	0.295360	931.588318
5246.317507	0.099708	0.295360	1021.724609
5246.318409	0.099763	0.295360	1111.710937
5246.319341	0.098624	0.295360	1203.628784
5246.320244	0.099137	0.295360	1293.149414
5246.321146	0.099983	0.295360	1383.333984
5246.322033	0.099254	0.295360	1471.372437
5246.322974	0.098383	0.295360	1563.950439
5247.343072	0.691161	0.281330	311.022400
5247.343999	0.413503	0.281330	694.340088
5247.344889	0.099335	0.281330	782.747986
5247.345821	0.098661	0.281330	874.699951
5247.346724	0.098796	0.281330	963.913086
5247.347629	0.100060	0.281330	1054.467163
5247.348522	0.099957	0.281330	1143.729004
5247.349464	0.098639	0.281330	1236.646851
5247.350373	0.099093	0.281330	1326.722412
5247.351269	0.099382	0.281330	1415.768921
5247.352187	0.098921	0.281330	1506.578247
5247.353104	0.098500	0.281330	1596.902588
5248.348619	0.704388	0.296460	309.226501
5248.349612	0.401697	0.296460	708.111389
5248.350527	0.099243	0.296460	798.918884
5248.351422	0.099734	0.296460	888.180725
5248.352366	0.098979	0.296460	981.617371
5248.353267	0.098690	0.296460	1070.537231
5248.354163	0.100616	0.296460	1160.689575
5248.355053	0.099437	0.296460	1249.188721
5248.355990	0.098397	0.296460	1341.386963
5248.356887	0.098716	0.296460	1429.935059
5248.357794	0.099390	0.296460	1520.081421
5248.358700	0.098730	0.296460	1609.531250
5249.376723	0.700320	0.281539	310.241669
5249.377632	0.415767	0.281539	688.173462
5249.378521	0.099060	0.281539	776.237854
5249.379470	0.098514	0.281539	869.728027
5249.380383	0.098983	0.281539	960.099670
5249.381278	0.099814	0.281539	1049.433594
5249.382214	0.098756	0.281539	1141.869263
5249.383129	0.098525	0.281539	1232.020020
5249.384030	0.099961	0.281539	1322.084839
5249.384917	0.099272	0.281539	1410.139526
5249.385863	0.098577	0.281539	1503.393066
5249.386764	0.098705	0.281539	1592.326172
5250.384849	0.718513	0.294897	316.145813
5250.385825	0.393468	0.294897	700.170532
5250.386738	0.098522	0.294897	790.120850
5250.387626	0.100107	0.294897	879.016235
5250.388537	0.099448	0.294897	969.613586
5250.389469	0.098668	0.294897	1061.572388
5250.390378	0.098928	0.294897	1151.498169
5250.391277	0.099452	0.294897	1240.905396
5250.392208	0.098463	0.294897	1332.574585
5250.393115	0.098386	0.294897	1421.810913
5250.394011	0.099097	0.294897	1510.601562
5250.394896	0.099873	0.294897	1598.989258
5251.410393	0.686422	0.280464	307.517090
5251.411288	0.405183	0.280464	670.156006
5251.412242	0.097745	0.280464	763.405090
5251.413144	0.098826	0.280464	852.545837
5251.414036	0.099576	0.280464	941.367981
5251.414929	0.099152	0.280464	1029.910400
5251.415882	0.098628	0.280464	1123.902832
5251.416787	0.099170	0.280464	1213.651611
5251.417682	0.099924	0.280464	1303.083862
5251.418612	0.098800	0.280464	1394.967896
5251.419517	0.098364	0.280464	1483.987549
5251.420421	0.099478	0.280464	1573.915283
5252.421580	0.705666	0.293906	311.904572
5252.422554	0.395123	0.293906	696.754639
5252.423466	0.098544	0.293906	786.626465
5252.424360	0.099474	0.293906	875.556091
5252.425299	0.098785	0.293906	968.315552
5252.426197	0.098397	0.293906	1056.676270
5252.427100	0.099862	0.293906	1146.851685
5252.427992	0.099792	0.293906	1235.866577
5252.428935	0.098390	0.293906	1328.648193
5252.429837	0.098796	0.293906	1417.762573
5252.430734	0.099873	0.293906	1507.348755
5252.431638	0.100045	0.293906	1597.789551
5253.443030	0.686653	0.279964	308.993774
5253.443946	0.413851	0.279964	688.081543
5253.444849	0.098533	0.279964	777.056580
5253.445786	0.098419	0.279964	869.275391
5253.446699	0.099587	0.279964	960.198669
5253.447593	0.099309	0.279964	1048.980957
5253.448529	0.098767	0.279964	1141.427002
5253.449433	0.098558	0.279964	1230.523682
5253.450333	0.099646	0.279964	1320.205078
5253.451222	0.100389	0.279964	1409.451294
5253.452169	0.098573	0.279964	1502.799927
5253.453074	0.098965	0.279964	1592.363159
5254.459347	0.686521	0.292750	303.442291
5254.460261	0.383936	0.292750	654.359375
5254.461149	0.099093	0.292750	742.354004
5254.462108	0.098397	0.292750	836.716919
5254.463015	0.099196	0.292750	926.687256
5254.463904	0.100104	0.292750	1015.679504
5254.464820	0.099012	0.292750	1106.374878
5254.465745	0.098555	0.292750	1197.537964
5254.466652	0.099229	0.292750	1287.538208
5254.467550	0.099360	0.292750	1376.763794
5254.468481	0.098621	0.292750	1468.579590
5254.469386	0.098650	0.292750	1557.857788
5255.475192	0.622321	0.281982	295.602264
5255.476113	0.381475	0.281982	646.940430
5255.477022	0.099185	0.281982	737.099182
5255.477914	0.099250	0.281982	825.630615
5255.478868	0.098734	0.281982	919.822998
5255.479771	0.099141	0.281982	1009.346985
5255.480674	0.099474	0.281982	1099.171875
5255.481601	0.098961	0.281982	1190.908936
5255.482498	0.098533	0.281982	1279.292725
5255.483394	0.099738	0.281982	1368.657593
5255.484283	0.099371	0.281982	1456.998657
5255.485235	0.098390	0.281982	1550.665771
5256.497613	0.713763	0.293161	315.483429
5256.498591	0.303446	0.293161	612.253662
5256.499501	0.098668	0.293161	702.041748
5256.500396	0.099620	0.293161	791.201965
5256.501286	0.099540	0.293161	879.792358
5256.502229	0.098661	0.293161	972.829590
5256.503147	0.099430	0.293161	1064.106201
5256.504053	0.099785	0.293161	1154.511597
5256.504946	0.098829	0.293161	1242.766235
5256.505889	0.098551	0.293161	1335.699829
5256.506788	0.099152	0.293161	1424.837158
5256.507675	0.099349	0.293161	1512.960083
5257.506258	0.705806	0.279167	314.789337
5257.507158	0.419868	0.279167	692.670654
5257.508091	0.098254	0.279167	784.342041
5257.508995	0.098525	0.279167	873.408997
5257.509892	0.099994	0.279167	963.103516
5257.510780	0.099397	0.279167	1051.368042
5257.511712	0.098463	0.279167	1143.135742
5257.512618	0.099188	0.279167	1233.000244
5257.513520	0.099752	0.279167	1322.976685
5257.514419	0.099133	0.279167	1412.097534
5257.515370	0.098452	0.279167	1505.725586
5257.516271	0.099514	0.279167	1595.387817
5258.536416	0.700572	0.291924	317.359344
5258.537320	0.409581	0.291924	687.620850
5258.538261	0.098606	0.291924	780.409058
5258.539168	0.098987	0.291924	870.190063
5258.540060	0.100056	0.291924	959.440125
5258.540950	0.100543	0.291924	1048.923584
5258.541891	0.098313	0.291924	1141.436035
5258.542808	0.099778	0.291924	1232.932251
5258.543706	0.100038	0.291924	1322.766235
5258.544594	0.099250	0.291924	1410.900635
5258.545543	0.098141	0.291924	1504.036377
5258.546449	0.099756	0.291924	1594.415161
5259.538394	0.703290	0.278921	310.150818
5259.539322	0.406322	0.278921	687.217651
5259.540209	0.099207	0.278921	775.213867
5259.541138	0.098738	0.278921	866.941284
5259.542041	0.098701	0.278921	956.068420
5259.542945	0.100452	0.278921	1046.876709
5259.543835	0.100232	0.278921	1136.083130
5259.544787	0.098514	0.278921	1229.868896
5259.545682	0.098767	0.278921	1318.265503
5259.546585	0.099229	0.278921	1407.868896
5259.547472	0.099456	0.278921	1496.085937
5259.548420	0.098364	0.278921	1589.335205
5260.573672	0.634662	0.289024	293.848450
5260.574584	0.412994	0.289024	670.499329
5260.575529	0.098397	0.289024	763.484680
5260.576437	0.099906	0.289024	854.199341
5260.577358	0.099998	0.289024	946.297119
5260.578244	0.099415	0.289024	1034.379028
5260.579201	0.099602	0.289024	1129.698242
5260.580106	0.100012	0.289024	1220.209229
5260.581001	0.100452	0.289024	1310.113525
5260.581950	0.098899	0.289024	1403.968628
5260.582862	0.099324	0.289024	1494.551880
5260.583776	0.099313	0.289024	1585.323730
5261.571542	0.690710	0.280230	305.294006
5261.572478	0.393073	0.280230	673.209839
5261.573374	0.099401	0.280230	762.272827
5261.574311	0.099078	0.280230	855.109253
5261.575217	0.098569	0.280230	944.413086
5261.576118	0.099650	0.280230	1034.197388
5261.577008	0.099679	0.280230	1122.911621
5261.577957	0.098361	0.280230	1216.255859
5261.578855	0.098888	0.280230	1305.057251
5261.579753	0.099752	0.280230	1394.634766
5261.580646	0.099075	0.280230	1483.108521
5261.581602	0.098485	0.280230	1577.260254
5262.610380	0.719213	0.284476	316.453552
5262.611354	0.406512	0.284476	712.396729
5262.612254	0.098837	0.284476	801.349731
5262.613152	0.100514	0.284476	891.611206
5262.614082	0.099287	0.284476	983.948242
5262.614991	0.098727	0.284476	1073.690918
5262.615897	0.099891	0.284476	1164.192505
5262.616797	0.099800	0.284476	1254.012329
5262.617730	0.098617	0.284476	1346.021973
5262.618621	0.098536	0.284476	1433.817871
5262.619523	0.099888	0.284476	1523.916626
5262.620409	0.099668	0.284476	1612.222412
5263.603662	0.700704	0.281443	309.711304
5263.604640	0.398943	0.281443	699.877441
5263.605552	0.099012	0.281443	790.176819
5263.606444	0.100232	0.281443	879.583740
5263.607379	0.099097	0.281443	972.239136
5263.608275	0.098536	0.281443	1060.527710
5263.609174	0.100378	0.281443	1150.767944
5263.610068	0.099891	0.281443	1240.070801
5263.611002	0.098394	0.281443	1331.970337
5263.611907	0.098741	0.281443	1421.331299
5263.612814	0.100239	0.281443	1512.248291
5263.613705	0.099232	0.281443	1600.664185
5264.647171	0.729196	0.285846	361.681000
5264.648098	0.387700	0.285846	721.079102
5264.649012	0.099474	0.285846	811.998230
5264.649907	0.100276	0.285846	901.745117
5264.650840	0.099093	0.285846	994.198914
5264.651739	0.098851	0.285846	1083.066284
5264.652641	0.100159	0.285846	1173.409424
5264.653529	0.099115	0.285846	1261.423584
5264.654480	0.098507	0.285846	1355.103760
5264.655392	0.099324	0.285846	1445.687012
5264.656293	0.100049	0.285846	1535.831055
5264.657217	0.098910	0.285846	1627.223877
5265.637848	0.692234	0.284693	305.967377
5265.638775	0.399591	0.284693	676.388306
5265.639672	0.098712	0.284693	764.933105
5265.640603	0.098580	0.284693	856.711365
5265.641513	0.098569	0.284693	946.409485
5265.642417	0.099609	0.284693	1036.456299
5265.643306	0.099855	0.284693	1125.227173
5265.644270	0.098408	0.284693	1220.092651
5265.645177	0.098661	0.284693	1309.578125
5265.646073	0.100009	0.284693	1399.185791
5265.646981	0.099027	0.284693	1489.102417
5265.647898	0.098331	0.284693	1579.272217
5266.682829	0.728005	0.280649	319.594360
5266.683773	0.314440	0.280649	616.425415
5266.684679	0.098104	0.280649	705.307861
5266.685572	0.100166	0.280649	794.756104
5266.686459	0.099639	0.280649	883.135620
5266.687406	0.098591	0.280649	976.501587
5266.688302	0.099144	0.280649	1065.334839
5266.689206	0.098998	0.280649	1154.828857
5266.690093	0.099419	0.280649	1243.013428
5266.691045	0.098251	0.280649	1336.548096
5266.691959	0.099012	0.280649	1427.045410
5266.692855	0.100261	0.280649	1516.879517
5267.672536	0.713774	0.284077	317.629608
5267.673431	0.408669	0.284077	683.388794
5267.674387	0.097855	0.284077	776.938354
5267.675289	0.098917	0.284077	866.161682
5267.676186	0.100411	0.284077	956.230713
5267.677076	0.099507	0.284077	1044.791748
5267.678025	0.098434	0.284077	1138.205444
5267.678927	0.099895	0.284077	1228.310791
5267.679818	0.100543	0.284077	1317.894775
5267.680744	0.098837	0.284077	1409.417480
5267.681649	0.098972	0.284077	1498.987305
5267.682549	0.100320	0.284077	1589.275146
5268.718552	0.686920	0.283110	310.487915
5268.719461	0.408362	0.283110	681.688843
5268.720400	0.097950	0.283110	773.664307
5268.721306	0.098771	0.283110	863.150635
5268.722209	0.099803	0.283110	953.273193
5268.723097	0.099939	0.283110	1042.019043
5268.724044	0.098353	0.283110	1135.159546
5268.724952	0.099653	0.283110	1225.644775
5268.725841	0.099587	0.283110	1314.177979
5268.726765	0.098580	0.283110	1405.266235
5268.727675	0.098350	0.283110	1494.764404
5268.728579	0.099811	0.283110	1584.993408
5269.707223	0.677102	0.282671	301.987518
5269.708144	0.386375	0.282671	657.838440
5269.709041	0.099163	0.282671	746.787292
5269.709964	0.098950	0.282671	838.118286
5269.710878	0.098580	0.282671	928.220703
5269.711781	0.099598	0.282671	1018.158020
5269.712677	0.099756	0.282671	1107.539307
5269.713620	0.098573	0.282671	1200.493652
5269.714528	0.098621	0.282671	1290.041138
5269.715436	0.099507	0.282671	1380.393311
5269.716331	0.099401	0.282671	1469.356934
5269.717276	0.098335	0.282671	1562.283447
5270.753284	0.719539	0.282917	356.891144
5270.754215	0.390970	0.282917	720.884644
5270.755119	0.099086	0.282917	810.458130
5270.756012	0.099701	0.282917	899.491089
5270.756944	0.098610	0.282917	991.395264
5270.757845	0.098621	0.282917	1080.252441
5270.758751	0.099082	0.282917	1170.020752
5270.759640	0.098987	0.282917	1258.020020
5270.760585	0.098361	0.282917	1350.970825
5270.761491	0.099203	0.282917	1440.848633
5270.762384	0.099404	0.282917	1529.616699
5270.763326	0.098789	0.282917	1622.676025
5271.741898	0.719095	0.278546	313.525635
5271.742800	0.420308	0.278546	692.643127
5271.743758	0.097815	0.278546	786.349854
5271.744664	0.099196	0.278546	876.221008
5271.745559	0.100085	0.278546	965.797485
5271.746496	0.099104	0.278546	1058.657959
5271.747394	0.098547	0.278546	1147.153442
5271.748297	0.099917	0.278546	1237.378540
5271.749193	0.099320	0.278546	1326.369385
5271.750113	0.098969	0.278546	1417.420410
5271.751017	0.098687	0.278546	1506.633057
5271.751921	0.099203	0.278546	1596.312500
5272.787460	0.652167	0.282990	324.779053
5272.788376	0.405443	0.282990	696.164917
5272.789303	0.099327	0.282990	788.241394
5272.790193	0.098873	0.282990	876.238647
5272.791143	0.098950	0.282990	970.241333
5272.792043	0.099833	0.282990	1060.090820
5272.792935	0.099961	0.282990	1149.255981
5272.793852	0.098837	0.282990	1239.889160
5272.794781	0.099247	0.282990	1332.089478
5272.795679	0.099320	0.282990	1421.278931
5272.796568	0.099745	0.282990	1509.952148
5272.797494	0.098525	0.282990	1601.186646
5273.777116	0.692699	0.279702	311.021820
5273.778042	0.413665	0.279702	694.075195
5273.778932	0.099071	0.279702	782.248413
5273.779878	0.098947	0.279702	875.851807
5273.780785	0.098752	0.279702	965.420288
5273.781686	0.099902	0.279702	1055.432251
5273.782575	0.100214	0.279702	1144.522217
5273.783527	0.098760	0.279702	1238.541504
5273.784433	0.099584	0.279702	1328.764404
5273.785331	0.099613	0.279702	1418.216919
5273.786259	0.098789	0.279702	1509.893188
5273.787167	0.098375	0.279702	1599.217896
5274.823116	0.714668	0.283876	315.883240
5274.824097	0.393977	0.283876	702.374756
5274.825001	0.099639	0.283876	792.448120
5274.825889	0.099888	0.283876	881.148376
5274.826827	0.098672	0.283876	973.702576
5274.827730	0.098921	0.283876	1063.028198
5274.828622	0.100540	0.283876	1152.709473
5274.829510	0.099591	0.283876	1241.146362
5274.830456	0.098437	0.283876	1334.268188
5274.831346	0.099609	0.283876	1422.920532
5274.832270	0.099880	0.283876	1515.209961
5274.833164	0.099272	0.283876	1603.959595
5275.813339	0.686243	0.280238	304.005524
5275.814263	0.403447	0.280238	676.790771
5275.815164	0.099276	0.280238	766.238525
5275.816093	0.099254	0.280238	858.445618
5275.816995	0.098745	0.280238	947.513733
5275.817901	0.099342	0.280238	1037.517578
5275.818793	0.100115	0.280238	1126.819946
5275.819724	0.098635	0.280238	1218.649414
5275.820620	0.098730	0.280238	1307.111938
5275.821520	0.100269	0.280238	1397.353638
5275.822407	0.099045	0.280238	1485.206909
5275.823356	0.098251	0.280238	1578.446899
5276.855761	0.687056	0.284544	305.739777
5276.856749	0.380090	0.284544	681.269043
5276.857660	0.098632	0.284544	771.122437
5276.858557	0.099705	0.284544	860.557434
5276.859485	0.098719	0.284544	952.169128
5276.860386	0.098478	0.284544	1040.897583
5276.861282	0.099781	0.284544	1130.301758
5276.862172	0.099595	0.284544	1218.941040
5276.863113	0.098452	0.284544	1311.584473
5276.864008	0.098712	0.284544	1399.931885
5276.864912	0.099606	0.284544	1489.975464
5276.865809	0.098584	0.284544	1578.405273
5277.849036	0.714576	0.275537	315.128204
5277.850020	0.408040	0.275537	716.639099
5277.850932	0.098965	0.275537	806.895020
5277.851829	0.099181	0.275537	895.860291
5277.852767	0.099108	0.275537	988.823242
5277.853672	0.098584	0.275537	1078.041748
5277.854571	0.099390	0.275537	1167.393066
5277.855458	0.100452	0.275537	1256.493652
5277.856394	0.098437	0.275537	1348.631104
5277.857302	0.098793	0.275537	1438.334961
5277.858190	0.099814	0.275537	1526.970215
5277.859111	0.099045	0.275537	1618.191040
5278.889953	0.658861	0.285729	298.464081
5278.890885	0.400748	0.285729	671.961487
5278.891778	0.099034	0.285729	760.399231
5278.892724	0.098701	0.285729	853.770508
5278.893625	0.098547	0.285729	942.561707
5278.894522	0.101008	0.285729	1033.166138
5278.895413	0.099521	0.285729	1121.839722
5278.896358	0.098573	0.285729	1214.991211
5278.897265	0.099305	0.285729	1305.061279
5278.898162	0.099357	0.285729	1394.184204
5278.899087	0.099287	0.285729	1486.024780
5278.900000	0.098408	0.285729	1575.871460
5279.885839	0.731572	0.275513	370.907104
5279.886769	0.390846	0.275513	734.393799
5279.887657	0.099642	0.275513	822.876221
5279.888545	0.100038	0.275513	911.709839
5279.889481	0.098496	0.275513	1003.902161
5279.890384	0.099196	0.275513	1093.475708
5279.891289	0.099778	0.275513	1183.774658
5279.892191	0.098804	0.275513	1272.895630
5279.893116	0.098492	0.275513	1364.001099
5279.894023	0.099111	0.275513	1453.895020
5279.894912	0.099518	0.275513	1542.366333
5279.895854	0.098646	0.275513	1635.291138
5280.921035	0.705348	0.285032	309.647736
5280.921935	0.410566	0.285032	679.157471
5280.922894	0.097756	0.285032	772.905823
5280.923810	0.099093	0.285032	863.675049
5280.924706	0.100880	0.285032	954.063660
5280.925633	0.098734	0.285032	1045.590210
5280.926535	0.098320	0.285032	1134.275146
5280.927432	0.100027	0.285032	1223.999268
5280.928323	0.099492	0.285032	1312.646851
5280.929269	0.098375	0.285032	1405.709839
5280.930168	0.098760	0.285032	1494.494873
5280.931064	0.099437	0.285032	1583.590698
5281.923577	0.632311	0.271029	302.244568
5281.924482	0.406205	0.271029	669.859985
5281.925373	0.099595	0.271029	758.598877
5281.926303	0.099382	0.271029	851.024414
5281.927220	0.099825	0.271029	942.564331
5281.928117	0.099697	0.271029	1031.992798
5281.929012	0.099558	0.271029	1121.097290
5281.929946	0.098994	0.271029	1213.557861
5281.930865	0.099448	0.271029	1304.950806
5281.931789	0.099514	0.271029	1396.901855
5281.932676	0.099792	0.271029	1485.417725
5281.933624	0.098807	0.271029	1579.087158
5282.954190	0.709966	0.286144	312.384949
5282.955083	0.412621	0.286144	680.855347
5282.956047	0.097932	0.286144	775.261902
5282.956954	0.098888	0.286144	864.953247
5282.957848	0.099851	0.286144	954.220093
5282.958790	0.098833	0.286144	1047.320801
5282.959692	0.098423	0.286144	1136.098267
5282.960588	0.099551	0.286144	1225.295776
5282.961482	0.099368	0.286144	1314.130493
5282.962416	0.098207	0.286144	1405.855591
5282.963316	0.098683	0.286144	1494.670166
5282.964214	0.100049	0.286144	1584.514038
5283.961803	0.713650	0.272564	313.292297
5283.962751	0.379482	0.272564	673.041626
5283.963671	0.098958	0.272564	764.082520
5283.964574	0.099587	0.272564	854.009949
5283.965465	0.099562	0.272564	942.719482
5283.966395	0.098939	0.272564	1034.732910
5283.967310	0.099408	0.272564	1125.691162
5283.968202	0.099917	0.272564	1214.817139
5283.969143	0.098965	0.272564	1307.943115
5283.970050	0.098822	0.272564	1397.574707
5283.970948	0.099397	0.272564	1486.833130
5283.971833	0.099661	0.272564	1575.032837
5284.985346	0.703506	0.283570	347.531891
5284.986265	0.386550	0.283570	702.771606
5284.987167	0.099386	0.283570	792.417786
5284.988056	0.099683	0.283570	881.035645
5284.988987	0.098463	0.283570	972.704834
5284.989898	0.098851	0.283570	1062.758423
5284.990802	0.099697	0.283570	1152.884766
5284.991718	0.099170	0.283570	1243.724365
5284.992647	0.098335	0.283570	1335.077515
5284.993555	0.098899	0.283570	1424.877686
5284.994450	0.099261	0.283570	1513.716675
5284.995402	0.098558	0.283570	1607.544189
5285.999579	0.677992	0.272294	303.740387
5286.000483	0.379006	0.272294	646.362122
5286.001368	0.098826	0.272294	733.822876
5286.002330	0.098562	0.272294	828.639526
5286.003227	0.099214	0.272294	917.634399
5286.004121	0.099961	0.272294	1006.999512
5286.005061	0.099020	0.272294	1100.078125
5286.005970	0.098474	0.272294	1189.591064
5286.006875	0.098844	0.272294	1279.044922
5286.007773	0.099382	0.272294	1368.290283
5286.008707	0.098251	0.272294	1460.056519
5286.009604	0.098408	0.272294	1548.328613
5287.017425	0.699836	0.283070	309.327667
5287.018378	0.322053	0.283070	616.244385
5287.019292	0.098053	0.283070	705.864807
5287.020189	0.099716	0.283070	795.309692
5287.021081	0.100155	0.283070	884.647949
5287.022041	0.098624	0.283070	979.327271
5287.022939	0.099049	0.283070	1068.273315
5287.023841	0.099371	0.283070	1157.906250
5287.024727	0.099401	0.283070	1245.975220
5287.025679	0.098273	0.283070	1339.530884
5287.026587	0.098837	0.283070	1429.274536
5287.027476	0.099679	0.283070	1517.889160
5288.037315	0.732598	0.266723	316.482178
5288.038267	0.293555	0.266723	595.946289
5288.039185	0.097855	0.266723	685.777405
5288.040092	0.099954	0.266723	776.435303
5288.040984	0.099360	0.266723	865.064758
5288.041939	0.098500	0.266723	959.132019
5288.042841	0.098676	0.266723	1048.137329
5288.043734	0.099214	0.266723	1136.735352
5288.044625	0.098807	0.266723	1224.772705
5288.045579	0.098247	0.266723	1318.500366
5288.046494	0.098602	0.266723	1408.721436
5288.047394	0.099152	0.266723	1497.957886
5289.051121	0.692820	0.288943	328.396606
5289.052024	0.395317	0.288943	685.368164
5289.052970	0.099027	0.288943	779.047791
5289.053880	0.100287	0.288943	870.308838
5289.054795	0.099529	0.288943	961.377686
5289.055691	0.099950	0.288943	1050.932861
5289.056638	0.099771	0.288943	1145.415527
5289.057558	0.099221	0.288943	1236.698975
5289.058448	0.099272	0.288943	1325.051514
5289.059403	0.098793	0.288943	1419.398560
5289.060310	0.099177	0.288943	1509.352295
5289.061230	0.099617	0.288943	1600.999634
5290.074618	0.728969	0.270981	352.820740
5290.075541	0.379274	0.270981	702.890381
5290.076449	0.098734	0.270981	792.540955
5290.077338	0.099218	0.270981	880.745361
5290.078275	0.098452	0.270981	972.994995
5290.079181	0.098584	0.270981	1062.312134
5290.080082	0.100232	0.270981	1152.621094
5290.080970	0.099397	0.270981	1240.885620
5290.081922	0.098503	0.270981	1334.660889
5290.082828	0.099327	0.270981	1424.651489
5290.083725	0.099891	0.270981	1514.254028
5290.084655	0.098947	0.270981	1606.274292
5291.083761	0.719630	0.289266	345.422455
5291.084658	0.402250	0.289266	706.240479
5291.085608	0.098298	0.289266	799.623901
5291.086507	0.099210	0.289266	888.813843
5291.087424	0.099598	0.289266	980.145569
5291.088320	0.099543	0.289266	1069.336548
5291.089254	0.098782	0.289266	1161.598633
5291.090163	0.099445	0.289266	1251.993774
5291.091055	0.099639	0.289266	1340.871460
5291.091965	0.099023	0.289266	1430.982788
5291.092895	0.099423	0.289266	1523.445801
5291.093796	0.099097	0.289266	1612.731934
5292.111359	0.610931	0.273374	299.967316
5292.112287	0.373180	0.273374	646.278320
5292.113186	0.098998	0.273374	735.277344
5292.114078	0.100060	0.273374	824.530701
5292.115038	0.098676	0.273374	919.259216
5292.115945	0.099144	0.273374	1009.183105
5292.116843	0.100210	0.273374	1099.171631
5292.117762	0.098741	0.273374	1189.915039
5292.118675	0.098595	0.273374	1279.932251
5292.119576	0.099617	0.273374	1369.686890
5292.120472	0.099803	0.273374	1459.110840
5292.121412	0.098635	0.273374	1551.828003
5293.117392	0.704985	0.283026	312.308533
5293.118283	0.414419	0.283026	681.555786
5293.119243	0.099034	0.283026	776.628845
5293.120134	0.099298	0.283026	865.103455
5293.121026	0.099976	0.283026	954.281677
5293.121961	0.098855	0.283026	1046.711060
5293.122873	0.099697	0.283026	1137.635010
5293.123796	0.099327	0.283026	1229.314209
5293.124695	0.099591	0.283026	1318.846558
5293.125654	0.099012	0.283026	1413.799561
5293.126560	0.099503	0.283026	1503.949463
5293.127478	0.099602	0.283026	1595.384155
5294.147018	0.730466	0.270864	317.752838
5294.147982	0.395903	0.270864	699.403625
5294.148880	0.098082	0.270864	787.481506
5294.149782	0.099789	0.270864	877.491028
5294.150668	0.099518	0.270864	965.663818
5294.151611	0.098705	0.270864	1058.742432
5294.152509	0.099064	0.270864	1147.701660
5294.153407	0.099939	0.270864	1237.446899
5294.154346	0.098650	0.270864	1330.079102
5294.155253	0.098298	0.270864	1419.235718
5294.156153	0.098969	0.270864	1508.307373
5294.157044	0.098961	0.270864	1596.481812
5295.152098	0.648256	0.284137	293.011566
5295.153004	0.412346	0.284137	666.597168
5295.153893	0.099639	0.284137	755.175964
5295.154843	0.099060	0.284137	849.283020
5295.155746	0.099650	0.284137	939.266663
5295.156648	0.099701	0.284137	1029.196899
5295.157540	0.099467	0.284137	1117.921021
5295.158480	0.098467	0.284137	1210.479858
5295.159384	0.099503	0.284137	1300.430664
5295.160277	0.100287	0.284137	1389.986816
5295.161198	0.099576	0.284137	1481.696655
5295.162111	0.098643	0.284137	1571.757324
5296.181715	0.678047	0.270554	301.052826
5296.182617	0.414716	0.270554	675.126221
5296.183504	0.099558	0.270554	763.434265
5296.184451	0.098738	0.270554	856.938965
5296.185343	0.099236	0.270554	945.457336
5296.186242	0.099836	0.270554	1035.210327
5296.187127	0.099558	0.270554	1123.319214
5296.188063	0.098474	0.270554	1215.490967
5296.188976	0.099478	0.270554	1306.313965
5296.189875	0.100122	0.270554	1396.323730
5296.190803	0.098617	0.270554	1487.840210
5296.191708	0.098192	0.270554	1576.704102
5297.186256	0.722966	0.279654	318.828156
5297.187184	0.405132	0.279654	694.790527
5297.188121	0.098046	0.279654	786.659302
5297.189036	0.099683	0.279654	877.868896
5297.189936	0.099774	0.279654	967.665649
5297.190864	0.098719	0.279654	1059.277344
5297.191772	0.098602	0.279654	1148.808228
5297.192680	0.099214	0.279654	1238.894409
5297.193568	0.099199	0.279654	1326.983276
5297.194504	0.098353	0.279654	1419.041992
5297.195414	0.099287	0.279654	1509.393311
5297.196302	0.099540	0.279654	1597.784668
5298.217460	0.582623	0.268947	280.824402
5298.218389	0.410361	0.268947	662.050049
5298.219291	0.099635	0.268947	751.920837
5298.220180	0.100126	0.268947	840.932617
5298.221139	0.098690	0.268947	935.576538
5298.222045	0.099335	0.268947	1025.573730
5298.222940	0.100822	0.268947	1115.808960
5298.223876	0.099331	0.268947	1208.782837
5298.224781	0.098489	0.268947	1297.915161
5298.225670	0.099093	0.268947	1386.008911
5298.226559	0.100063	0.268947	1474.965332
5298.227491	0.098467	0.268947	1566.736328
5299.220953	0.704630	0.277414	312.151154
5299.221880	0.359971	0.277414	645.843994
5299.222767	0.099049	0.277414	733.700500
5299.223690	0.099141	0.277414	825.207275
5299.224615	0.098474	0.277414	916.295837
5299.225524	0.099192	0.277414	1006.461304
5299.226419	0.099719	0.277414	1095.709961
5299.227351	0.098445	0.277414	1187.460571
5299.228257	0.098386	0.277414	1276.598511
5299.229152	0.099844	0.277414	1365.958618
5299.230039	0.098584	0.277414	1453.402588
5299.230985	0.098434	0.277414	1546.520996
5300.251645	0.714770	0.270792	349.522766
5300.252572	0.368782	0.270792	691.383423
5300.253504	0.099210	0.270792	783.847351
5300.254401	0.098950	0.270792	872.605652
5300.255346	0.098976	0.270792	966.137817
5300.256247	0.099569	0.270792	1055.849609
5300.257134	0.100166	0.270792	1144.696899
5300.258064	0.098529	0.270792	1236.328857
5300.258972	0.099254	0.270792	1326.451660
5300.259893	0.098613	0.270792	1417.274536
5300.260790	0.099166	0.270792	1506.226685
5300.261744	0.098529	0.270792	1600.223389
5301.255629	0.718440	0.277672	315.395142
5301.256525	0.402378	0.277672	675.925781
5301.257492	0.097987	0.277672	770.679260
5301.258395	0.099133	0.277672	860.196655
5301.259285	0.100657	0.277672	949.781128
5301.260216	0.098796	0.277672	1041.760498
5301.261124	0.098386	0.277672	1131.095215
5301.262028	0.098822	0.277672	1220.430298
5301.262919	0.099888	0.277672	1309.430176
5301.263858	0.098401	0.277672	1401.828613
5301.264761	0.098804	0.277672	1491.048340
5301.265664	0.099789	0.277672	1581.157593
5302.286289	0.705447	0.269652	309.691132
5302.287189	0.377567	0.269652	649.501587
5302.288158	0.098240	0.269652	744.695923
5302.289065	0.099847	0.269652	835.257507
5302.289955	0.099393	0.269652	923.717529
5302.290874	0.099001	0.269652	1014.699890
5302.291808	0.099163	0.269652	1107.317749
5302.292701	0.099159	0.269652	1195.866699
5302.293588	0.099382	0.269652	1284.018799
5302.294523	0.098672	0.269652	1376.276978
5302.295425	0.099287	0.269652	1465.833984
5302.296338	0.099283	0.269652	1556.479736
5303.290379	0.555374	0.281986	278.797516
5303.291298	0.376996	0.281986	625.256714
5303.292200	0.098921	0.281986	714.483337
5303.293086	0.099152	0.281986	802.331665
5303.294027	0.098562	0.281986	895.078491
5303.294938	0.099045	0.281986	985.308838
5303.295832	0.099492	0.281986	1074.254883
5303.296759	0.098547	0.281986	1165.608276
5303.297673	0.098529	0.281986	1255.663818
5303.298577	0.099371	0.281986	1345.495483
5303.299465	0.099613	0.281986	1433.951904
5303.300413	0.098518	0.281986	1527.347046
5304.320983	0.691201	0.267601	305.510895
5304.321894	0.388290	0.267601	659.242920
5304.322784	0.099009	0.267601	747.360718
5304.323731	0.098906	0.267601	841.024902
5304.324630	0.098906	0.267601	929.941650
5304.325537	0.099463	0.267601	1020.154480
5304.326426	0.100093	0.267601	1109.136963
5304.327378	0.098372	0.267601	1202.786743
5304.328279	0.099188	0.267601	1292.155396
5304.329185	0.099159	0.267601	1381.993408
5304.330076	0.099485	0.267601	1470.634399
5304.331025	0.098467	0.267601	1564.079346
5305.325004	0.727625	0.277737	319.427185
5305.325900	0.409442	0.277737	686.287354
5305.326874	0.098035	0.277737	781.773132
5305.327772	0.098833	0.277737	870.525146
5305.328672	0.099760	0.277737	960.308716
5305.329561	0.099229	0.277737	1048.522827
5305.330485	0.098555	0.277737	1139.587402
5305.331395	0.099595	0.277737	1230.218628
5305.332292	0.099796	0.277737	1319.735718
5305.333228	0.098906	0.277737	1412.312012
5305.334132	0.098500	0.277737	1501.355835
5305.335032	0.099349	0.277737	1590.770264
5306.355657	0.728020	0.268786	316.688690
5306.356620	0.342913	0.268786	646.913513
5306.357523	0.098397	0.268786	735.766174
5306.358424	0.099507	0.268786	825.421814
5306.359313	0.099547	0.268786	913.919189
5306.360262	0.098467	0.268786	1007.364197
5306.361172	0.099064	0.268786	1097.512207
5306.362068	0.100140	0.268786	1187.238037
5306.362994	0.098723	0.268786	1278.655640
5306.363903	0.098423	0.268786	1368.122070
5306.364811	0.099624	0.268786	1458.580688
5306.365707	0.099543	0.268786	1547.771606
5307.360710	0.718986	0.278937	313.477692
5307.361690	0.367701	0.278937	673.825073
5307.362611	0.099093	0.278937	765.089722
5307.363499	0.099598	0.278937	853.533081
5307.364464	0.099558	0.278937	949.606628
5307.365361	0.099910	0.278937	1039.225586
5307.366283	0.100148	0.278937	1131.561768
5307.367171	0.099258	0.278937	1219.702759
5307.368105	0.099760	0.278937	1312.878174
5307.369035	0.099390	0.278937	1405.310547
5307.369935	0.100144	0.278937	1495.440186
5307.370874	0.098763	0.278937	1588.179077
5308.390363	0.686781	0.269591	306.304352
5308.391288	0.401433	0.269591	677.630005
5308.392185	0.098954	0.269591	766.391602
5308.393121	0.099056	0.269591	859.108398
5308.394035	0.098716	0.269591	949.334656
5308.394938	0.100232	0.269591	1039.844116
5308.395823	0.099664	0.269591	1128.046997
5308.396773	0.098610	0.269591	1221.726074
5308.397677	0.099653	0.269591	1311.812622
5308.398571	0.100367	0.269591	1401.541138
5308.399513	0.098859	0.269591	1494.666016
5308.400407	0.098514	0.269591	1582.737915
5309.396969	0.638232	0.277285	290.395752
5309.397902	0.408842	0.277285	671.844910
5309.398801	0.099888	0.277285	761.643921
5309.399683	0.099108	0.277285	849.056885
5309.400630	0.099093	0.277285	942.897949
5309.401527	0.099807	0.277285	1032.424927
5309.402420	0.100042	0.277285	1121.761963
5309.403355	0.098745	0.277285	1214.088623
5309.404271	0.099196	0.277285	1304.951782
5309.405173	0.100247	0.277285	1395.374146
5309.406064	0.099122	0.277285	1483.692139
5309.407017	0.098229	0.277285	1577.304199
5310.424034	0.686484	0.267666	312.350372
5310.424936	0.386290	0.267666	660.784180
5310.425854	0.098214	0.267666	750.944702
5310.426784	0.098456	0.267666	842.508606
5310.427694	0.099708	0.267666	933.243103
5310.428591	0.099404	0.267666	1022.408752
5310.429530	0.098928	0.267666	1115.302368
5310.430434	0.098694	0.267666	1204.521606
5310.431340	0.099932	0.267666	1295.059692
5310.432229	0.099287	0.267666	1383.325928
5310.433183	0.098595	0.267666	1477.385498
5310.434087	0.098657	0.267666	1566.571655
5311.433180	0.672623	0.276447	303.353088
5311.434090	0.382822	0.276447	651.721313
5311.434988	0.098950	0.276447	740.578613
5311.435912	0.098917	0.276447	831.978149
5311.436819	0.098547	0.276447	921.360596
5311.437720	0.099338	0.276447	1010.864502
5311.438614	0.099873	0.276447	1100.151001
5311.439566	0.098357	0.276447	1193.786865
5311.440464	0.098353	0.276447	1282.108154
5311.441361	0.099774	0.276447	1371.605591
5311.442248	0.099038	0.276447	1459.452393
5311.443184	0.098262	0.276447	1551.425415
5312.455635	0.714613	0.265656	316.573578
5312.456604	0.400400	0.265656	704.561523
5312.457516	0.098654	0.265656	794.533569
5312.458405	0.099591	0.265656	883.070007
5312.459345	0.098665	0.265656	975.814697
5312.460247	0.098624	0.265656	1064.773804
5312.461150	0.099917	0.265656	1154.998901
5312.462039	0.099745	0.265656	1243.672119
5312.462984	0.098496	0.265656	1336.750977
5312.463885	0.099045	0.265656	1425.990845
5312.464780	0.099789	0.265656	1515.301880
5312.465704	0.099218	0.265656	1606.978882
5313.470419	0.689938	0.277757	307.712250
5313.471321	0.406853	0.277757	674.693665
5313.472251	0.098298	0.277757	766.111145
5313.473181	0.098577	0.277757	857.787415
5313.474087	0.099265	0.277757	947.721619
5313.474981	0.099371	0.277757	1036.559570
5313.475923	0.098448	0.277757	1129.298096
5313.476832	0.098317	0.277757	1218.667969
5313.477731	0.099657	0.277757	1308.259644
5313.478615	0.098965	0.277757	1395.744507
5313.479554	0.098558	0.277757	1488.290771
5313.480467	0.099174	0.277757	1578.836304
5314.489320	0.659092	0.268467	299.886749
5314.490247	0.402191	0.268467	672.717957
5314.491144	0.098943	0.268467	761.469727
5314.492038	0.099342	0.268467	850.281494
5314.492972	0.098595	0.268467	942.369202
5314.493876	0.099390	0.268467	1032.217407
5314.494775	0.099847	0.268467	1121.980225
5314.495703	0.098738	0.268467	1213.608887
5314.496601	0.098375	0.268467	1301.949829
5314.497509	0.100833	0.268467	1393.505737
5314.498397	0.099265	0.268467	1481.653198
5314.499348	0.098317	0.268467	1575.152344
5315.507668	0.690597	0.275618	304.553253
5315.508564	0.415100	0.275618	676.482910
5315.509511	0.097888	0.275618	769.182983
5315.510428	0.098987	0.275618	859.953857
5315.511317	0.099800	0.275618	948.675903
5315.512242	0.098990	0.275618	1040.242065
5315.513148	0.098511	0.275618	1129.492798
5315.514045	0.099987	0.275618	1219.180786
5315.514934	0.099950	0.275618	1308.036255
5315.515873	0.098456	0.275618	1400.486206
5315.516779	0.098910	0.275618	1490.098633
5315.517684	0.100591	0.275618	1581.133301
5316.520401	0.690165	0.263823	307.813507
5316.521305	0.421113	0.263823	688.499878
5316.522253	0.098372	0.263823	781.756104
5316.523161	0.098533	0.263823	871.223816
5316.524063	0.100437	0.263823	961.817993
5316.524952	0.099617	0.263823	1050.377197
5316.525896	0.098470	0.263823	1143.333252
5316.526810	0.098507	0.263823	1233.368774
5316.527708	0.100214	0.263823	1323.360596
5316.528634	0.098943	0.263823	1414.981689
5316.529537	0.098507	0.263823	1503.933594
5316.530449	0.100543	0.263823	1595.629028
5317.545479	0.647889	0.271279	322.001007
5317.546400	0.403542	0.271279	693.663635
5317.547304	0.098763	0.271279	782.945801
5317.548192	0.100056	0.271279	871.795654
5317.549138	0.098687	0.271279	965.153076
5317.550046	0.098862	0.271279	1054.920044
5317.550942	0.101045	0.271279	1145.456299
5317.551876	0.099082	0.271279	1237.998901
5317.552788	0.098357	0.271279	1327.700439
5317.553696	0.098950	0.271279	1417.547241
5317.554599	0.099694	0.271279	1507.570557
5317.555528	0.098375	0.271279	1598.961182
5318.552005	0.721611	0.262175	313.179321
5318.552971	0.403652	0.262175	703.107483
5318.553883	0.099038	0.262175	793.430237
5318.554804	0.100082	0.262175	885.605591
5318.555705	0.099386	0.262175	975.152344
5318.556662	0.099210	0.262175	1070.096558
5318.557566	0.100082	0.262175	1160.570557
5318.558457	0.099694	0.262175	1249.397583
5318.559380	0.099093	0.262175	1340.860474
5318.560296	0.098800	0.262175	1431.361328
5318.561195	0.099844	0.262175	1521.120850
5318.562082	0.100038	0.262175	1609.854370
5319.583190	0.690978	0.270683	309.558044
5319.584110	0.417869	0.270683	693.997192
5319.585054	0.098650	0.270683	787.122681
5319.585963	0.098577	0.270683	876.728882
5319.586859	0.099569	0.270683	965.942810
5319.587747	0.100320	0.270683	1055.026855
5319.588715	0.098430	0.270683	1150.307251
5319.589614	0.098606	0.270683	1238.953979
5319.590516	0.099635	0.270683	1328.824707
5319.591402	0.099368	0.270683	1416.864502
5319.592336	0.098313	0.270683	1508.688843
5319.593247	0.099294	0.270683	1599.146118
5320.585160	0.717843	0.264898	312.979553
5320.586135	0.397178	0.264898	700.227905
5320.587041	0.099254	0.264898	790.152161
5320.587937	0.100514	0.264898	880.212646
5320.588882	0.099316	0.264898	974.066650
5320.589788	0.099115	0.264898	1063.864868
5320.590681	0.100096	0.264898	1153.250977
5320.591567	0.099803	0.264898	1241.676880
5320.592507	0.098478	0.264898	1334.245972
5320.593414	0.099327	0.264898	1424.335937
5320.594312	0.099470	0.264898	1513.660156
5320.595205	0.098837	0.264898	1601.921265
5321.620939	0.733227	0.273112	321.153656
5321.621916	0.401997	0.273112	713.904785
5321.622815	0.098624	0.273112	802.567993
5321.623717	0.100195	0.273112	892.944153
5321.624609	0.099075	0.273112	981.318787
5321.625561	0.098635	0.273112	1075.219604
5321.626469	0.099221	0.273112	1165.312500
5321.627369	0.100239	0.273112	1255.527832
5321.628296	0.099100	0.273112	1347.393799
5321.629197	0.098562	0.273112	1436.198120
5321.630094	0.099697	0.273112	1525.626587
5321.630983	0.100444	0.273112	1614.921631
5322.618381	0.578708	0.263460	292.247772
5322.619313	0.366021	0.263460	633.378906
5322.620217	0.099221	0.263460	723.074890
5322.621106	0.099188	0.263460	811.253235
5322.622058	0.098657	0.263460	905.174927
5322.622964	0.098793	0.263460	994.681152
5322.623862	0.099613	0.263460	1084.133667
5322.624782	0.098965	0.263460	1175.181274
5322.625693	0.098478	0.263460	1264.894531
5322.626601	0.099364	0.263460	1355.117065
5322.627489	0.100129	0.263460	1444.031982
5322.628449	0.098580	0.263460	1538.669067
5323.657675	0.709460	0.266965	310.034210
5323.658639	0.398324	0.266965	694.018555
5323.659554	0.098749	0.266965	784.373657
5323.660444	0.099727	0.266965	873.130310
5323.661379	0.098928	0.266965	965.628174
5323.662284	0.098566	0.266965	1054.830078
5323.663184	0.100367	0.266965	1145.160767
5323.664073	0.099844	0.266965	1233.921875
5323.665024	0.098500	0.266965	1327.595093
5323.665917	0.098807	0.266965	1415.830078
5323.666812	0.100598	0.266965	1505.865479
5323.667702	0.099038	0.266965	1594.009399
5324.651534	0.564382	0.268467	283.319946
5324.652460	0.400796	0.268467	654.456970
5324.653366	0.099591	0.268467	744.686462
5324.654256	0.099177	0.268467	832.954224
5324.655195	0.098591	0.268467	925.531494
5324.656106	0.099130	0.268467	1015.838623
5324.657004	0.100283	0.268467	1105.892944
5324.657930	0.099053	0.268467	1197.615723
5324.658830	0.098503	0.268467	1286.268799
5324.659726	0.099320	0.268467	1375.259521
5324.660612	0.099459	0.268467	1463.380371
5324.661549	0.098610	0.268467	1555.777588
5325.693892	0.723215	0.266912	313.152252
5325.694835	0.367947	0.266912	660.126099
5325.695761	0.098752	0.266912	751.570862
5325.696664	0.099258	0.266912	841.200684
5325.697553	0.099624	0.266912	929.766418
5325.698485	0.098672	0.266912	1021.728638
5325.699390	0.099141	0.266912	1111.450928
5325.700288	0.099521	0.266912	1200.821167
5325.701175	0.098928	0.266912	1288.570557
5325.702126	0.098342	0.266912	1382.094116
5325.703016	0.098928	0.266912	1470.140259
5325.703908	0.099404	0.266912	1558.808838
5326.685649	0.710259	0.264673	313.934387
5326.686560	0.424438	0.264673	700.597839
5326.687447	0.098518	0.264673	787.983337
5326.688408	0.098489	0.264673	882.631042
5326.689317	0.099650	0.264673	973.212585
5326.690213	0.099470	0.264673	1062.337891
5326.691156	0.099020	0.264673	1155.713501
5326.692064	0.098613	0.264673	1245.254395
5326.692969	0.100404	0.264673	1336.120117
5326.693859	0.100580	0.264673	1425.636108
5326.694808	0.098591	0.264673	1519.199219
5326.695707	0.098851	0.264673	1608.066528
5327.729622	0.719718	0.267154	319.554810
5327.730513	0.382368	0.267154	660.244873
5327.731457	0.098130	0.267154	752.879517
5327.732365	0.099170	0.267154	842.925781
5327.733268	0.099825	0.267154	933.068176
5327.734198	0.099291	0.267154	1025.408569
5327.735115	0.098628	0.267154	1115.850342
5327.736025	0.099254	0.267154	1206.171631
5327.736921	0.099075	0.267154	1294.942627
5327.737859	0.098430	0.267154	1387.270142
5327.738761	0.098492	0.267154	1476.110352
5327.739659	0.099309	0.267154	1565.289917
5328.719843	0.713939	0.264012	321.986572
5328.720744	0.407483	0.264012	689.128662
5328.721630	0.100378	0.264012	778.063965
5328.722593	0.099690	0.264012	874.065369
5328.723501	0.100192	0.264012	965.039368
5328.724393	0.100067	0.264012	1054.299316
5328.725305	0.099463	0.264012	1145.009521
5328.726247	0.100023	0.264012	1239.231323
5328.727173	0.099675	0.264012	1331.530640
5328.728065	0.100419	0.264012	1421.104126
5328.729011	0.099708	0.264012	1515.428101
5328.729928	0.099760	0.264012	1606.907593
5329.765335	0.677823	0.266981	302.309265
5329.766239	0.396163	0.266981	660.440918
5329.767123	0.098793	0.266981	747.773682
5329.768081	0.098522	0.266981	842.157471
5329.768980	0.099661	0.266981	931.752380
5329.769876	0.099657	0.266981	1021.045044
5329.770806	0.098708	0.266981	1112.843994
5329.771715	0.098401	0.266981	1202.290405
5329.772616	0.100063	0.266981	1292.447632
5329.773506	0.100085	0.266981	1381.523682
5329.774439	0.098427	0.266981	1473.355591
5329.775341	0.099218	0.266981	1562.849854
5330.755040	0.672865	0.263593	301.443512
5330.755958	0.401191	0.263593	669.737244
5330.756858	0.099532	0.263593	759.316467
5330.757787	0.098881	0.263593	851.176575
5330.758704	0.099338	0.263593	942.269897
5330.759608	0.099935	0.263593	1032.611450
5330.760498	0.099939	0.263593	1121.557129
5330.761446	0.098826	0.263593	1215.243896
5330.762356	0.099243	0.263593	1305.555176
5330.763253	0.099895	0.263593	1395.161011
5330.764140	0.099218	0.263593	1483.166992
5330.765084	0.098661	0.263593	1576.302856
5331.799499	0.727998	0.266232	315.951141
5331.800447	0.413090	0.266232	707.560059
5331.801370	0.098075	0.266232	798.083252
5331.802279	0.099968	0.266232	888.954407
5331.803181	0.100159	0.266232	979.297546
5331.804114	0.098602	0.266232	1071.293457
5331.805017	0.098661	0.266232	1160.384277
5331.805919	0.100118	0.266232	1250.691040
5331.806806	0.099093	0.266232	1338.586548
5331.807747	0.098405	0.266232	1431.185181
5331.808645	0.099086	0.266232	1520.164185
5331.809539	0.099653	0.266232	1609.254272
5332.789706	0.717894	0.262856	311.566101
5332.790664	0.402986	0.262856	697.626526
5332.791580	0.098188	0.262856	787.567200
5332.792483	0.099928	0.262856	877.802185
5332.793370	0.099569	0.262856	966.119995
5332.794324	0.098800	0.262856	1060.375244
5332.795230	0.099181	0.262856	1150.233154
5332.796130	0.099617	0.262856	1239.888184
5332.797063	0.099148	0.262856	1332.393188
5332.797959	0.098525	0.262856	1420.671875
5332.798871	0.100027	0.262856	1511.896362
5332.799761	0.099675	0.262856	1600.607422
5333.834205	0.677791	0.266465	301.616791
5333.835125	0.407776	0.266465	676.770630
5333.836024	0.100034	0.266465	766.701355
5333.836960	0.099723	0.266465	860.041992
5333.837865	0.098654	0.266465	949.323486
5333.838773	0.099657	0.266465	1039.812012
5333.839671	0.099613	0.266465	1129.264526
5333.840608	0.098470	0.266465	1221.531372
5333.841513	0.099163	0.266465	1311.273560
5333.842413	0.100049	0.266465	1401.317505
5333.843300	0.099492	0.266465	1489.567017
5333.844232	0.098514	0.266465	1581.382446
5334.824916	0.700653	0.260769	311.089966
5334.825832	0.368049	0.260769	648.223145
5334.826720	0.099313	0.260769	736.412842
5334.827648	0.098829	0.260769	828.126465
5334.828575	0.099302	0.260769	920.179199
5334.829469	0.099796	0.260769	1009.396973
5334.830361	0.099862	0.260769	1098.473877
5334.831293	0.098723	0.260769	1190.483887
5334.832202	0.099408	0.260769	1280.845703
5334.833115	0.099009	0.260769	1371.240723
5334.834012	0.098829	0.260769	1459.890625
5334.834957	0.098569	0.260769	1553.038696
5335.867359	0.658909	0.265100	300.462372
5335.868285	0.401158	0.265100	671.935059
5335.869185	0.098947	0.265100	760.986938
5335.870116	0.099368	0.265100	853.498230
5335.871012	0.098617	0.265100	941.859009
5335.871903	0.099609	0.265100	1030.610962
5335.872789	0.100217	0.265100	1119.403442
5335.873723	0.098599	0.265100	1211.494629
5335.874637	0.098683	0.265100	1301.690796
5335.875540	0.099800	0.265100	1391.810059
5335.876432	0.099639	0.265100	1480.687744
5335.877377	0.098588	0.265100	1573.853027
5336.860172	0.697947	0.260814	353.859009
5336.861086	0.394742	0.260814	714.653564
5336.861990	0.100034	0.260814	805.084473
5336.862879	0.099591	0.260814	893.620911
5336.863818	0.098771	0.260814	986.366638
5336.864730	0.098990	0.260814	1076.645996
5336.865633	0.099741	0.260814	1166.712280
5336.866542	0.099078	0.260814	1256.774536
5336.867470	0.098540	0.260814	1348.219727
5336.868379	0.099379	0.260814	1438.554932
5336.869275	0.100162	0.260814	1528.300415
5336.870222	0.098522	0.260814	1621.600464
5337.901016	0.728738	0.265430	330.118225
5337.901977	0.365303	0.265430	681.174133
5337.902904	0.099111	0.265430	773.050354
5337.903793	0.100433	0.265430	862.335571
5337.904727	0.099474	0.265430	955.244141
5337.905630	0.099741	0.265430	1045.310425
5337.906552	0.099448	0.265430	1137.001709
5337.907440	0.099562	0.265430	1225.412598
5337.908377	0.099225	0.265430	1318.386230
5337.909299	0.099265	0.265430	1409.908691
5337.910224	0.099543	0.265430	1501.986328
5337.911119	0.099430	0.265430	1590.976074
5338.896375	0.720154	0.260612	347.834290
5338.897323	0.409043	0.260612	735.607056
5338.898232	0.099525	0.260612	826.075439
5338.899130	0.100503	0.260612	916.327087
5338.900056	0.098738	0.260612	1007.758301
5338.900961	0.098672	0.260612	1097.056396
5338.901861	0.100118	0.260612	1187.162964
5338.902749	0.099569	0.260612	1275.580322
5338.903704	0.098584	0.260612	1369.728027
5338.904610	0.099005	0.260612	1459.426636
5338.905501	0.099800	0.260612	1548.348267
5338.906436	0.098928	0.260612	1640.846191
5339.934180	0.687437	0.269156	310.721313
5339.935084	0.396346	0.269156	669.018433
5339.935972	0.099763	0.269156	757.608154
5339.936907	0.098866	0.269156	850.047852
5339.937816	0.099401	0.269156	940.403015
5339.938719	0.100151	0.269156	1030.839722
5339.939612	0.099895	0.269156	1120.046021
5339.940556	0.098661	0.269156	1213.181885
5339.941463	0.099847	0.269156	1303.743530
5339.942362	0.099902	0.269156	1393.555786
5339.943250	0.098826	0.269156	1481.312988
5339.944189	0.098591	0.269156	1573.890259
5340.934612	0.686188	0.258465	308.784485
5340.935518	0.419249	0.258465	688.624329
5340.936468	0.098346	0.258465	782.052979
5340.937378	0.098829	0.258465	871.987671
5340.938269	0.100228	0.258465	961.291077
5340.939154	0.100107	0.258465	1049.886108
5340.940088	0.098807	0.258465	1142.172241
5340.940997	0.099371	0.258465	1232.500732
5340.941894	0.100785	0.258465	1322.904785
5340.942811	0.099283	0.258465	1413.947754
5340.943728	0.098591	0.258465	1504.355957
5340.944635	0.099646	0.258465	1594.734863
5341.966347	0.648717	0.268641	326.953369
5341.967277	0.383130	0.268641	683.264160
5341.968182	0.099536	0.268641	773.344360
5341.969071	0.099496	0.268641	861.796143
5341.970024	0.098690	0.268641	955.847900
5341.970926	0.099108	0.268641	1045.243042
5341.971826	0.100298	0.268641	1135.511108
5341.972754	0.098892	0.268641	1227.282471
5341.973663	0.098522	0.268641	1316.838745
5341.974571	0.099126	0.268641	1406.845093
5341.975465	0.099569	0.268641	1495.859863
5341.976396	0.098419	0.268641	1587.488159
5342.971857	0.728295	0.257510	321.906250
5342.972749	0.411643	0.257510	689.091858
5342.973698	0.098229	0.257510	782.310974
5342.974588	0.099998	0.257510	871.308777
5342.975481	0.100693	0.257510	961.227966
5342.976403	0.100126	0.257510	1053.543945
5342.977327	0.099016	0.257510	1145.034790
5342.978229	0.099481	0.257510	1234.766846
5342.979126	0.099346	0.257510	1323.879883
5342.980075	0.098584	0.257510	1417.436035
5342.980978	0.099254	0.257510	1507.062500
5342.981875	0.099697	0.257510	1596.490967
5343.998919	0.728522	0.269100	319.821014
5343.999882	0.392153	0.269100	697.464661
5344.000799	0.098412	0.269100	787.708374
5344.001698	0.099712	0.269100	877.349365
5344.002631	0.098936	0.269100	969.656250
5344.003544	0.098599	0.269100	1059.676758
5344.004443	0.099155	0.269100	1148.817383
5344.005331	0.099917	0.269100	1237.543701
5344.006283	0.098540	0.269100	1331.353760
5344.007182	0.098745	0.269100	1420.125610
5344.008075	0.099551	0.269100	1509.024414
5344.008960	0.099005	0.269100	1596.643921
5345.009144	0.719381	0.257393	347.461060
5345.010073	0.379307	0.257393	699.836914
5345.010982	0.099415	0.257393	790.205444
5345.011883	0.099716	0.257393	880.049194
5345.012814	0.098716	0.257393	971.953613
5345.013719	0.098917	0.257393	1061.473755
5345.014624	0.099727	0.257393	1151.726318
5345.015512	0.099379	0.257393	1239.974609
5345.016458	0.098408	0.257393	1333.068726
5345.017366	0.099045	0.257393	1423.001953
5345.018260	0.099291	0.257393	1511.767944
5345.019195	0.098862	0.257393	1604.204224
5346.031577	0.717744	0.271239	323.702606
5346.032472	0.416019	0.271239	696.039917
5346.033416	0.098079	0.271239	788.626099
5346.034331	0.099939	0.271239	880.070251
5346.035246	0.099470	0.271239	971.085510
5346.036141	0.099485	0.271239	1060.124512
5346.037086	0.098961	0.271239	1153.642822
5346.038003	0.099716	0.271239	1245.082031
5346.038902	0.099631	0.271239	1334.650635
5346.039810	0.098998	0.271239	1424.540649
5346.040739	0.099276	0.271239	1516.768188
5346.041640	0.099360	0.271239	1606.291870
5347.047384	0.686708	0.258554	310.391937
5347.048286	0.415638	0.258554	685.297791
5347.049228	0.098009	0.258554	777.622314
5347.050129	0.098807	0.258554	866.647766
5347.051026	0.099580	0.258554	955.971069
5347.051915	0.099393	0.258554	1044.331787
5347.052864	0.098562	0.258554	1137.867187
5347.053769	0.099133	0.258554	1227.582764
5347.054659	0.100477	0.258554	1317.007568
5347.055595	0.099349	0.258554	1409.998535
5347.056505	0.098423	0.258554	1499.563354
5347.057413	0.099653	0.258554	1590.048584
5348.062683	0.686331	0.269910	304.730774
5348.063609	0.418033	0.269910	691.829712
5348.064503	0.099613	0.269910	780.883789
5348.065420	0.099012	0.269910	871.678223
5348.066349	0.098588	0.269910	963.266113
5348.067266	0.099580	0.269910	1054.581055
5348.068159	0.100085	0.269910	1143.957397
5348.069096	0.098789	0.269910	1236.522705
5348.069986	0.098921	0.269910	1324.562256
5348.070890	0.099818	0.269910	1414.797852
5348.071782	0.100089	0.269910	1504.077393
5348.072724	0.098533	0.269910	1596.895264
5349.084616	0.713778	0.256088	312.634796
5349.085579	0.338086	0.256088	638.211548
5349.086482	0.098251	0.256088	726.931946
5349.087379	0.099976	0.256088	816.610046
5349.088268	0.099408	0.256088	904.983704
5349.089190	0.098844	0.256088	996.117859
5349.090105	0.099082	0.256088	1086.777954
5349.091014	0.100371	0.256088	1178.015259
5349.091905	0.099360	0.256088	1266.545288
5349.092862	0.098481	0.256088	1360.791992
5349.093766	0.099280	0.256088	1450.540894
5349.094664	0.099496	0.256088	1539.888184
5350.096340	0.686144	0.271102	303.961700
5350.097248	0.410083	0.271102	676.317078
5350.098138	0.098445	0.271102	763.932983
5350.099090	0.098467	0.271102	857.673401
5350.099991	0.099071	0.271102	946.936401
5350.100894	0.099712	0.271102	1036.976318
5350.101781	0.099474	0.271102	1125.209595
5350.102732	0.098562	0.271102	1218.942017
5350.103637	0.099239	0.271102	1308.753784
5350.104529	0.100045	0.271102	1397.994019
5350.105454	0.098654	0.271102	1489.248535
5350.106353	0.098467	0.271102	1577.770142
5351.120852	0.705795	0.256294	311.255463
5351.121759	0.401202	0.256294	675.145996
5351.122678	0.098514	0.256294	765.680725
5351.123627	0.099170	0.256294	859.792969
5351.124529	0.100012	0.256294	950.003967
5351.125418	0.100763	0.256294	1039.582275
5351.126358	0.098547	0.256294	1132.216797
5351.127277	0.099503	0.256294	1223.660156
5351.128197	0.099818	0.256294	1315.492798
5351.129088	0.099686	0.256294	1404.313232
5351.130036	0.098599	0.256294	1497.784790
5351.130931	0.099104	0.256294	1586.482910
5352.129498	0.676578	0.268947	299.724243
5352.130407	0.412837	0.268947	674.992981
5352.131295	0.098815	0.268947	762.740417
5352.132266	0.098470	0.268947	858.355225
5352.133171	0.099086	0.268947	948.027771
5352.134064	0.100737	0.268947	1037.986206
5352.134971	0.098859	0.268947	1127.651001
5352.135909	0.098566	0.268947	1220.105591
5352.136821	0.099434	0.268947	1310.789062
5352.137721	0.100404	0.268947	1401.152710
5352.138654	0.098712	0.268947	1493.251221
5352.139562	0.098610	0.268947	1582.788818
5353.156055	0.694362	0.253683	307.602173
5353.156964	0.362347	0.253683	636.975952
5353.157854	0.099261	0.253683	725.318665
5353.158782	0.098719	0.253683	816.930359
5353.159694	0.098793	0.253683	907.029297
5353.160595	0.099756	0.253683	996.909302
5353.161492	0.099174	0.253683	1085.868042
5353.162438	0.098423	0.253683	1178.976074
5353.163343	0.098870	0.253683	1268.453125
5353.164244	0.099507	0.253683	1358.108765
5353.165131	0.098829	0.253683	1445.770386
5353.166081	0.098317	0.253683	1539.171143
5354.163158	0.698840	0.266921	313.080475
5354.164060	0.379146	0.266921	655.069702
5354.165005	0.098097	0.266921	747.771301
5354.165901	0.098291	0.266921	835.840027
5354.166800	0.099005	0.266921	924.845642
5354.167689	0.099734	0.266921	1013.509033
5354.168621	0.098617	0.266921	1105.420044
5354.169518	0.098459	0.266921	1193.738159
5354.170423	0.099507	0.266921	1283.791870
5354.171312	0.098859	0.266921	1371.677246
5354.172266	0.098470	0.266921	1465.618042
5354.173172	0.098679	0.266921	1555.021362
5355.192786	0.705399	0.255802	311.081055
5355.193704	0.347758	0.255802	630.322510
5355.194597	0.098298	0.255802	718.102905
5355.195544	0.098492	0.255802	811.375244
5355.196465	0.099478	0.255802	902.994080
5355.197366	0.099536	0.255802	992.676147
5355.198258	0.099225	0.255802	1081.184692
5355.199196	0.098265	0.255802	1173.357666
5355.200096	0.098910	0.255802	1262.376587
5355.200983	0.099155	0.255802	1350.327271
5355.201912	0.098804	0.255802	1442.115967
5355.202830	0.098679	0.255802	1532.703491
5356.196815	0.719707	0.263936	317.390778
5356.197710	0.391732	0.263936	667.991089
5356.198680	0.098002	0.263936	763.052734
5356.199578	0.099822	0.263936	852.692688
5356.200470	0.099694	0.263936	941.619385
5356.201402	0.099316	0.263936	1034.182251
5356.202306	0.098577	0.263936	1123.295532
5356.203207	0.099419	0.263936	1212.871948
5356.204101	0.099045	0.263936	1301.418579
5356.205031	0.098947	0.263936	1393.438843
5356.205932	0.098573	0.263936	1482.253174
5356.206835	0.099338	0.263936	1571.955688
5357.228032	0.735040	0.254550	361.639801
5357.228966	0.403187	0.254550	738.216675
5357.229865	0.099774	0.254550	827.913635
5357.230756	0.099789	0.254550	916.825439
5357.231711	0.098668	0.254550	1011.053589
5357.232610	0.099001	0.254550	1100.055908
5357.233503	0.099620	0.254550	1189.016846
5357.234393	0.099353	0.254550	1277.441040
5357.235346	0.098584	0.254550	1371.391602
5357.236252	0.099203	0.254550	1461.269409
5357.237147	0.099723	0.254550	1550.521362
5357.238076	0.098657	0.254550	1642.173950
5358.232552	0.617871	0.265901	288.545776
5358.233471	0.364365	0.265901	623.397400
5358.234370	0.099053	0.265901	712.445801
5358.235322	0.098628	0.265901	806.339600
5358.236225	0.099236	0.265901	895.949585
5358.237121	0.099452	0.265901	985.058472
5358.238064	0.098646	0.265901	1078.081909
5358.238964	0.098771	0.265901	1166.975586
5358.239869	0.099485	0.265901	1257.009399
5358.240757	0.099320	0.265901	1345.205566
5358.241699	0.098448	0.265901	1437.944092
5358.242610	0.099243	0.265901	1528.354614
5359.262180	0.686924	0.253365	309.802643
5359.263086	0.384357	0.253365	658.029785
5359.263972	0.098848	0.253365	745.608826
5359.264913	0.098939	0.253365	838.710632
5359.265834	0.099078	0.253365	929.961792
5359.266735	0.099686	0.253365	1019.779114
5359.267627	0.099657	0.253365	1108.673096
5359.268584	0.098672	0.253365	1203.102051
5359.269490	0.099393	0.253365	1293.152344
5359.270388	0.099576	0.253365	1382.572021
5359.271276	0.099159	0.253365	1470.625122
5359.272219	0.098650	0.253365	1563.651978
5360.266701	0.713394	0.262489	310.326172
5360.267648	0.378772	0.262489	669.023193
5360.268556	0.098060	0.262489	758.061951
5360.269468	0.099569	0.262489	848.868958
5360.270358	0.100488	0.262489	938.303528
5360.271303	0.098921	0.262489	1031.783813
5360.272202	0.098804	0.262489	1120.608398
5360.273103	0.099899	0.262489	1210.617065
5360.273992	0.099928	0.262489	1299.453003
5360.274939	0.098654	0.262489	1392.877930
5360.275839	0.099148	0.262489	1482.111084
5360.276735	0.099851	0.262489	1571.577637
5361.297350	0.720923	0.253687	312.880493
5361.298279	0.403934	0.253687	688.135498
5361.299234	0.098668	0.253687	782.363647
5361.300132	0.099459	0.253687	871.678040
5361.301021	0.099836	0.253687	960.432617
5361.301962	0.098998	0.253687	1053.589600
5361.302872	0.099888	0.253687	1144.487427
5361.303791	0.100093	0.253687	1236.472656
5361.304680	0.100217	0.253687	1325.565796
5361.305623	0.099188	0.253687	1419.100342
5361.306523	0.100203	0.253687	1509.282715
5361.307414	0.099968	0.253687	1598.354492
5362.301934	0.604003	0.263239	288.109283
5362.302846	0.385638	0.263239	639.811523
5362.303733	0.099276	0.263239	727.869446
5362.304674	0.098796	0.263239	820.836853
5362.305582	0.099214	0.263239	910.923035
5362.306481	0.100613	0.263239	1001.373901
5362.307418	0.100280	0.263239	1095.335815
5362.308333	0.098694	0.263239	1185.640625
5362.309240	0.099598	0.263239	1275.976318
5362.310139	0.099771	0.263239	1365.670044
5362.311074	0.098412	0.263239	1457.685181
5362.311975	0.098412	0.263239	1546.354248
5363.332582	0.690773	0.253317	311.538483
5363.333493	0.401788	0.253317	677.567627
5363.334386	0.099913	0.253317	766.790222
5363.335336	0.099968	0.253317	861.760071
5363.336255	0.100389	0.253317	954.017944
5363.337156	0.099569	0.253317	1043.729736
5363.338056	0.099239	0.253317	1133.045288
5363.339018	0.099551	0.253317	1228.813110
5363.339928	0.100525	0.253317	1320.290771
5363.340842	0.099811	0.253317	1411.517822
5363.341732	0.099540	0.253317	1500.108276
5363.342693	0.099540	0.253317	1595.765991
5364.337123	0.718883	0.259968	332.123962
5364.338079	0.400382	0.259968	714.889282
5364.338991	0.100093	0.259968	806.173889
5364.339889	0.100060	0.259968	896.027588
5364.340824	0.098972	0.259968	988.566528
5364.341724	0.098881	0.259968	1077.559082
5364.342622	0.100115	0.259968	1167.462158
5364.343511	0.100397	0.259968	1256.714844
5364.344453	0.098584	0.259968	1349.580933
5364.345360	0.099031	0.259968	1439.401855
5364.346248	0.100199	0.259968	1528.378540
5364.347175	0.099412	0.259968	1620.533081
5365.367295	0.688978	0.255911	336.910370
5365.368228	0.403645	0.255911	713.511169
5365.369128	0.099697	0.255911	803.238708
5365.370017	0.100496	0.255911	892.579285
5365.370966	0.098928	0.255911	986.462158
5365.371875	0.099529	0.255911	1076.933838
5365.372774	0.100056	0.255911	1166.884277
5365.373689	0.099463	0.255911	1257.892822
5365.374616	0.098778	0.255911	1349.460083
5365.375527	0.099500	0.255911	1440.104126
5365.376422	0.100104	0.255911	1529.697021
5365.377358	0.098719	0.255911	1622.098511
5366.372301	0.717946	0.259641	314.460144
5366.373195	0.409695	0.259641	680.727295
5366.374146	0.098196	0.259641	774.111511
5366.375056	0.098906	0.259641	864.116211
5366.375959	0.100005	0.259641	954.420593
5366.376846	0.099518	0.259641	1042.692871
5366.377773	0.098533	0.259641	1134.032715
5366.378686	0.099104	0.259641	1224.514648
5366.379590	0.099760	0.259641	1314.697266
5366.380528	0.098474	0.259641	1407.066040
5366.381432	0.098368	0.259641	1495.990601
5366.382333	0.099305	0.259641	1585.464844
5367.401933	0.704117	0.254006	311.924011
5367.402835	0.419205	0.254006	690.047241
5367.403781	0.098320	0.254006	783.058228
5367.404692	0.098844	0.254006	873.105103
5367.405593	0.100177	0.254006	963.364563
5367.406483	0.099690	0.254006	1052.088623
5367.407427	0.098738	0.254006	1145.297119
5367.408321	0.098899	0.254006	1233.712769
5367.409221	0.100551	0.254006	1324.208252
5367.410129	0.099247	0.254006	1414.324341
5367.411059	0.098569	0.254006	1505.993774
5367.411972	0.099825	0.254006	1597.134399
5368.408540	0.686700	0.260338	313.135406
5368.409436	0.386884	0.260338	659.783081
5368.410399	0.098060	0.260338	754.215149
5368.411292	0.098785	0.260338	842.430542
5368.412186	0.099884	0.260338	931.726868
5368.413075	0.099371	0.260338	1020.067993
5368.414014	0.098427	0.260338	1112.490479
5368.414922	0.099009	0.260338	1202.390503
5368.415814	0.099752	0.260338	1291.369507
5368.416720	0.098639	0.260338	1380.736328
5368.417655	0.098240	0.260338	1472.590454
5368.418559	0.098939	0.260338	1562.031494
5369.435598	0.700056	0.250481	308.024719
5369.436494	0.387524	0.250481	655.246582
5369.437455	0.097972	0.250481	749.398071
5369.438366	0.099049	0.250481	839.631775
5369.439268	0.099408	0.250481	929.297729
5369.440204	0.098848	0.250481	1021.819153
5369.441112	0.098650	0.250481	1111.393311
5369.442010	0.100382	0.250481	1201.536377
5369.442901	0.099785	0.250481	1290.444946
5369.443852	0.098423	0.250481	1384.045044
5369.444754	0.098873	0.250481	1473.228760
5369.445652	0.099181	0.250481	1562.293213
5370.444763	0.676740	0.258429	302.502563
5370.445670	0.412408	0.258429	676.557007
5370.446560	0.099382	0.258429	765.007263
5370.447500	0.098917	0.258429	857.989441
5370.448432	0.099587	0.258429	950.804932
5370.449332	0.099510	0.258429	1040.364380
5370.450229	0.099723	0.258429	1129.815796
5370.451169	0.098844	0.258429	1222.729126
5370.452079	0.099218	0.258429	1313.017090
5370.452997	0.100913	0.258429	1405.655273
5370.453887	0.099174	0.258429	1493.919800
5370.454838	0.099185	0.258429	1588.244385
5371.469263	0.717616	0.248447	316.468628
5371.470261	0.379387	0.248447	695.097046
5371.471156	0.098752	0.248447	783.480469
5371.472061	0.099939	0.248447	873.925232
5371.472953	0.099188	0.248447	962.401123
5371.473904	0.098756	0.248447	1056.318115
5371.474813	0.099591	0.248447	1146.846436
5371.475710	0.099701	0.248447	1236.278198
5371.476640	0.098855	0.248447	1328.213379
5371.477544	0.098474	0.248447	1417.234009
5371.478440	0.100210	0.248447	1507.022095
5371.479328	0.099115	0.248447	1595.036255
5372.482517	0.727925	0.264935	323.926544
5372.483415	0.426387	0.264935	706.821777
5372.484362	0.098698	0.264935	800.288330
5372.485273	0.099679	0.264935	891.095825
5372.486199	0.099500	0.264935	983.232361
5372.487094	0.100151	0.264935	1072.867798
5372.488036	0.099159	0.264935	1166.275513
5372.488944	0.099646	0.264935	1256.754028
5372.489870	0.099884	0.264935	1349.246582
5372.490759	0.099529	0.264935	1437.727661
5372.491717	0.099672	0.264935	1533.213135
5372.492643	0.100184	0.264935	1625.983887
5373.501904	0.700510	0.244749	311.026550
5373.502806	0.413983	0.244749	684.439331
5373.503784	0.098038	0.244749	780.320801
5373.504693	0.099404	0.244749	870.679321
5373.505585	0.100587	0.244749	960.403076
5373.506516	0.098917	0.244749	1052.494995
5373.507424	0.098859	0.244749	1142.258667
5373.508326	0.099928	0.244749	1232.393677
5373.509214	0.099979	0.244749	1321.175293
5373.510166	0.098646	0.244749	1415.086548
5373.511066	0.098936	0.244749	1504.128540
5373.511958	0.100302	0.244749	1593.597534
5374.518737	0.733605	0.254574	328.654907
5374.519671	0.403118	0.254574	705.166870
5374.520568	0.099415	0.254574	794.342407
5374.521529	0.099774	0.254574	890.225403
5374.522449	0.099723	0.254574	981.970459
5374.523339	0.100115	0.254574	1071.072632
5374.524269	0.099617	0.254574	1163.716187
5374.525185	0.100148	0.254574	1255.451538
5374.526110	0.099558	0.254574	1347.542725
5374.526999	0.099866	0.254574	1436.323364
5374.527946	0.099331	0.254574	1530.389893
5374.528859	0.099906	0.254574	1621.604126
5375.534037	0.700496	0.249309	311.020050
5375.534946	0.414049	0.249309	687.390686
5375.535838	0.098796	0.249309	775.517090
5375.536806	0.098668	0.249309	871.027954
5375.537724	0.099170	0.249309	962.065918
5375.538621	0.099796	0.249309	1051.583008
5375.539557	0.099232	0.249309	1144.464355
5375.540456	0.098701	0.249309	1233.196655
5375.541353	0.099836	0.249309	1322.749878
5375.542242	0.100254	0.249309	1411.875610
5375.543185	0.098580	0.249309	1504.836792
5375.544077	0.098796	0.249309	1592.963135
5376.556032	0.729456	0.254151	358.162689
5376.556957	0.405901	0.254151	733.621033
5376.557853	0.100155	0.254151	823.359924
5376.558740	0.099976	0.254151	912.038269
5376.559688	0.098917	0.254151	1005.811829
5376.560594	0.099089	0.254151	1095.586792
5376.561492	0.100111	0.254151	1185.486572
5376.562383	0.099357	0.254151	1274.013428
5376.563313	0.098866	0.254151	1365.958740
5376.564224	0.099280	0.254151	1456.402588
5376.565123	0.099716	0.254151	1546.046875
5376.566057	0.099192	0.254151	1638.692139
5377.566676	0.690070	0.250106	302.940521
5377.567601	0.406212	0.250106	678.686768
5377.568496	0.099309	0.250106	767.568359
5377.569420	0.098635	0.250106	858.707336
5377.570324	0.098621	0.250106	947.860352
5377.571227	0.099847	0.250106	1038.022583
5377.572118	0.100038	0.250106	1127.156250
5377.573070	0.098566	0.250106	1220.990723
5377.573969	0.099291	0.250106	1310.253174
5377.574866	0.099631	0.250106	1399.622437
5377.575764	0.098778	0.250106	1488.325195
5377.576688	0.098536	0.250106	1579.372803
5378.593242	0.686375	0.251472	304.063934
5378.594174	0.403835	0.251472	680.438599
5378.595065	0.099957	0.251472	769.500549
5378.596007	0.099027	0.251472	862.784058
5378.596913	0.098840	0.251472	952.333374
5378.597818	0.099635	0.251472	1042.503052
5378.598709	0.099774	0.251472	1131.401855
5378.599660	0.098562	0.251472	1225.134277
5378.600571	0.099990	0.251472	1316.225342
5378.601471	0.099976	0.251472	1406.203369
5378.602394	0.098837	0.251472	1497.429565
5378.603308	0.098357	0.251472	1587.327759
5379.599372	0.554894	0.246686	281.331146
5379.600297	0.400778	0.246686	652.050415
5379.601192	0.100679	0.246686	742.157837
5379.602082	0.099573	0.246686	830.777588
5379.603036	0.098774	0.246686	925.008362
5379.603943	0.098899	0.246686	1014.709717
5379.604844	0.099635	0.246686	1104.480835
5379.605773	0.098917	0.246686	1196.375000
5379.606679	0.098489	0.246686	1285.605835
5379.607575	0.100375	0.246686	1375.541626
5379.608464	0.100001	0.246686	1464.442749
5379.609410	0.098489	0.246686	1557.613159
5380.630988	0.717924	0.252181	314.450531
5380.631882	0.412119	0.252181	682.885010
5380.632841	0.098148	0.252181	777.009155
5380.633750	0.098892	0.252181	866.901611
5380.634641	0.099620	0.252181	955.663330
5380.635568	0.099423	0.252181	1047.828125
5380.636478	0.098485	0.252181	1137.449585
5380.637390	0.098895	0.252181	1227.642090
5380.638285	0.099943	0.252181	1317.090698
5380.639220	0.098412	0.252181	1409.105835
5380.640122	0.098555	0.252181	1498.002197
5380.641028	0.100063	0.252181	1588.659668
5381.630935	0.710489	0.248326	314.746826
5381.631825	0.385833	0.248326	658.137756
5381.632774	0.098013	0.248326	751.151794
5381.633693	0.098910	0.248326	842.049988
5381.634594	0.099877	0.248326	932.038879
5381.635525	0.098965	0.248326	1024.175171
5381.636428	0.098529	0.248326	1113.146851
5381.637324	0.099686	0.248326	1202.465698
5381.638213	0.099247	0.248326	1290.696167
5381.639171	0.098280	0.248326	1384.848389
5381.640069	0.098536	0.248326	1473.334106
5381.640971	0.099445	0.248326	1563.033081
5382.668834	0.702253	0.255641	369.385284
5382.669759	0.404579	0.255641	743.620728
5382.670668	0.099104	0.255641	833.706299
5382.671560	0.099360	0.255641	922.335754
5382.672518	0.098665	0.255641	1016.856384
5382.673415	0.099210	0.255641	1105.847900
5382.674318	0.100393	0.255641	1196.502808
5382.675207	0.099430	0.255641	1284.895996
5382.676147	0.098654	0.255641	1377.630371
5382.677061	0.099606	0.255641	1468.670044
5382.677957	0.099924	0.255641	1558.202271
5382.678886	0.098954	0.255641	1650.130371
5383.663597	0.687839	0.246489	319.845276
5383.664506	0.385631	0.246489	670.383972
5383.665393	0.098958	0.246489	758.159302
5383.666345	0.098705	0.246489	852.126282
5383.667244	0.099723	0.246489	941.777161
5383.668134	0.100093	0.246489	1030.859741
5383.669068	0.099133	0.246489	1123.450195
5383.669981	0.098749	0.246489	1213.607788
5383.670884	0.099840	0.246489	1303.763428
5383.671771	0.099012	0.246489	1391.587524
5383.672720	0.098408	0.246489	1484.976929
5383.673630	0.099313	0.246489	1575.351562
5384.704452	0.728101	0.249949	315.995667
5384.705416	0.355649	0.249949	658.841675
5384.706337	0.098038	0.249949	749.135010
5384.707238	0.099239	0.249949	838.549805
5384.708128	0.099562	0.249949	927.159790
5384.709070	0.098741	0.249949	1020.174255
5384.709982	0.099163	0.249949	1110.610596
5384.710876	0.100741	0.249949	1200.672974
5384.711799	0.099023	0.249949	1292.071655
5384.712716	0.098756	0.249949	1382.630981
5384.713631	0.099591	0.249949	1473.756836
5384.714527	0.100532	0.249949	1563.833740
5385.698256	0.705436	0.243677	307.569977
5385.699235	0.402682	0.243677	701.795532
5385.700142	0.099159	0.243677	791.732666
5385.701042	0.100291	0.243677	881.994141
5385.701929	0.099448	0.243677	970.204712
5385.702863	0.098621	0.243677	1062.316406
5385.703773	0.099379	0.243677	1152.750977
5385.704669	0.099401	0.243677	1241.813965
5385.705604	0.099613	0.243677	1334.952148
5385.706521	0.099060	0.243677	1425.790283
5385.707428	0.099617	0.243677	1516.142578
5385.708318	0.100085	0.243677	1605.218628
5386.740681	0.705223	0.250703	308.182617
5386.741628	0.410266	0.250703	696.704590
5386.742547	0.098199	0.250703	786.949890
5386.743452	0.100247	0.250703	877.673035
5386.744341	0.100627	0.250703	967.130859
5386.745280	0.098793	0.250703	1059.897217
5386.746189	0.099137	0.250703	1150.012695
5386.747098	0.100499	0.250703	1241.366577
5386.747990	0.099716	0.250703	1330.312866
5386.748946	0.098591	0.250703	1424.566162
5386.749851	0.099298	0.250703	1514.430908
5386.750744	0.100210	0.250703	1603.918457
5387.732992	0.576182	0.244640	277.143372
5387.733910	0.406366	0.244640	650.187317
5387.734802	0.099371	0.244640	738.826538
5387.735736	0.099126	0.244640	831.410217
5387.736646	0.100045	0.244640	922.451294
5387.737540	0.100360	0.244640	1012.173218
5387.738432	0.100239	0.244640	1101.586670
5387.739364	0.098734	0.244640	1193.606934
5387.740272	0.099459	0.244640	1283.915894
5387.741189	0.099448	0.244640	1375.109985
5387.742079	0.099613	0.244640	1463.765625
5387.743031	0.098950	0.244640	1557.966187
5388.776906	0.718008	0.249824	314.487427
5388.777800	0.417133	0.249824	687.403931
5388.778763	0.098152	0.249824	781.924194
5388.779680	0.099723	0.249824	873.370117
5388.780587	0.100353	0.249824	964.390076
5388.781522	0.099521	0.249824	1057.442627
5388.782426	0.098650	0.249824	1146.622070
5388.783324	0.099858	0.249824	1236.294922
5388.784213	0.100715	0.249824	1325.830811
5388.785162	0.098503	0.249824	1419.310547
5388.786061	0.098866	0.249824	1508.191040
5388.786954	0.100792	0.249824	1598.198486
5389.767635	0.728782	0.241574	323.579071
5389.768532	0.401144	0.241574	683.405029
5389.769497	0.098547	0.241574	778.503235
5389.770392	0.099481	0.241574	867.538940
5389.771281	0.099818	0.241574	956.277222
5389.772226	0.099313	0.241574	1050.127808
5389.773135	0.099104	0.241574	1140.213379
5389.774042	0.099364	0.241574	1230.336548
5389.774930	0.099869	0.241574	1319.020508
5389.775861	0.098730	0.241574	1410.938599
5389.776781	0.099078	0.241574	1502.090698
5389.777708	0.099628	0.241574	1594.445557
5390.811668	0.564240	0.248576	287.197906
5390.812590	0.404641	0.248576	660.276978
5390.813483	0.099866	0.248576	749.457031
5390.814374	0.100294	0.248576	838.819153
5390.815321	0.098837	0.248576	932.417480
5390.816234	0.099723	0.248576	1023.464478
5390.817130	0.099760	0.248576	1112.848999
5390.818062	0.099144	0.248576	1205.251465
5390.818960	0.098745	0.248576	1293.924561
5390.819860	0.099562	0.248576	1383.530151
5390.820748	0.099965	0.248576	1472.298706
5390.821694	0.098470	0.248576	1565.451782
5391.802360	0.590057	0.242271	281.457367
5391.803283	0.405637	0.242271	655.860474
5391.804215	0.099463	0.242271	748.559875
5391.805103	0.099646	0.242271	837.045532
5391.806049	0.099331	0.242271	931.012695
5391.806943	0.099485	0.242271	1019.952148
5391.807831	0.099646	0.242271	1108.437744
5391.808758	0.099159	0.242271	1200.358032
5391.809668	0.099606	0.242271	1290.999268
5391.810591	0.100302	0.242271	1383.577515
5391.811490	0.099741	0.242271	1473.244873
5391.812424	0.098646	0.242271	1565.380493
5392.845274	0.686107	0.247552	306.689911
5392.846202	0.412855	0.247552	689.819580
5392.847092	0.100093	0.247552	778.902161
5392.848042	0.098708	0.247552	872.675232
5392.848948	0.098976	0.247552	962.347351
5392.849850	0.100225	0.247552	1052.750000
5392.850737	0.099261	0.247552	1140.794922
5392.851686	0.098760	0.247552	1234.517944
5392.852591	0.099020	0.247552	1324.130859
5392.853490	0.100009	0.247552	1414.038574
5392.854427	0.099038	0.247552	1506.837280
5392.855326	0.098551	0.247552	1595.434692
5393.837518	0.714060	0.244273	315.614563
5393.838470	0.404810	0.244273	700.993286
5393.839386	0.098979	0.244273	791.658508
5393.840284	0.099935	0.244273	881.400391
5393.841170	0.100031	0.244273	970.027405
5393.842109	0.098705	0.244273	1062.711182
5393.843017	0.100338	0.244273	1153.818237
5393.843916	0.099884	0.244273	1243.614014
5393.844861	0.098602	0.244273	1336.793213
5393.845777	0.099243	0.244273	1427.699951
5393.846684	0.100327	0.244273	1518.696655
5393.847574	0.100195	0.244273	1607.870483
5394.879431	0.732330	0.245280	319.296021
5394.880326	0.415591	0.245280	691.249817
5394.881278	0.098309	0.245280	784.840332
5394.882191	0.099075	0.245280	875.295532
5394.883096	0.100616	0.245280	966.353394
5394.883988	0.099357	0.245280	1054.979614
5394.884932	0.098848	0.245280	1148.291748
5394.885839	0.099972	0.245280	1238.966309
5394.886734	0.100309	0.245280	1328.742676
5394.887671	0.098954	0.245280	1421.462402
5394.888575	0.098672	0.245280	1510.661743
5394.889479	0.100085	0.245280	1601.139038
5395.873222	0.713540	0.242235	311.103455
5395.874189	0.326089	0.242235	626.431396
5395.875094	0.098130	0.242235	715.238953
5395.875993	0.099353	0.242235	804.557312
5395.876881	0.100118	0.242235	893.462463
5395.877825	0.098734	0.242235	986.667480
5395.878735	0.099137	0.242235	1076.882080
5395.879641	0.099609	0.242235	1167.128174
5395.880532	0.099089	0.242235	1255.416748
5395.881480	0.098533	0.242235	1348.825806
5395.882388	0.099155	0.242235	1438.858765
5395.883285	0.100012	0.242235	1528.569702
5396.912596	0.705044	0.247754	311.629425
5396.913492	0.412745	0.247754	681.449219
5396.914467	0.098218	0.247754	777.211548
5396.915383	0.099243	0.247754	868.118286
5396.916273	0.100419	0.247754	957.490906
5396.917187	0.099283	0.247754	1048.235962
5396.918122	0.098851	0.247754	1140.661987
5396.919031	0.100126	0.247754	1231.676270
5396.919925	0.099218	0.247754	1320.376709
5396.920847	0.098771	0.247754	1411.443359
5396.921751	0.098668	0.247754	1500.639404
5396.922660	0.099774	0.247754	1591.334106
5397.909962	0.718429	0.242642	315.390289
5397.910923	0.397625	0.242642	697.507446
5397.911831	0.098313	0.242642	786.775635
5397.912736	0.100778	0.242642	877.979370
5397.913625	0.099207	0.242642	966.173950
5397.914569	0.098547	0.242642	1059.202637
5397.915480	0.099404	0.242642	1149.760010
5397.916369	0.100309	0.242642	1238.934570
5397.917306	0.099034	0.242642	1331.729858
5397.918207	0.098654	0.242642	1420.616699
5397.919109	0.100074	0.242642	1510.883911
5397.920000	0.099562	0.242642	1599.593506
5398.945759	0.714705	0.250275	319.472961
5398.946664	0.401748	0.250275	683.054932
5398.947554	0.099917	0.250275	771.981079
5398.948490	0.100444	0.250275	865.996948
5398.949407	0.100042	0.250275	957.734985
5398.950319	0.100162	0.250275	1049.083008
5398.951214	0.100162	0.250275	1138.728271
5398.952167	0.099822	0.250275	1233.858398
5398.953086	0.100635	0.250275	1326.341797
5398.953980	0.099847	0.250275	1415.605347
5398.954923	0.099126	0.250275	1509.081177
5398.955820	0.099375	0.250275	1598.220581
5399.946700	0.718825	0.239830	315.563965
5399.947664	0.405923	0.239830	706.873596
5399.948578	0.099174	0.239830	797.518250
5399.949476	0.100404	0.239830	887.681091
5399.950414	0.099456	0.239830	980.970398
5399.951314	0.098870	0.239830	1069.953125
5399.952207	0.100865	0.239830	1160.026001
5399.953092	0.100404	0.239830	1248.883545
5399.954032	0.098829	0.239830	1341.783081
5399.954928	0.099031	0.239830	1430.514648
5399.955833	0.099587	0.239830	1520.641235
5399.956721	0.099792	0.239830	1609.256958
5400.978901	0.714587	0.247597	320.135162
5400.979803	0.416331	0.247597	695.665283
5400.980747	0.098467	0.247597	788.617920
5400.981663	0.099163	0.247597	879.450867
5400.982568	0.099943	0.247597	969.898926
5400.983458	0.100646	0.247597	1059.473633
5400.984412	0.099023	0.247597	1153.942017
5400.985320	0.099496	0.247597	1244.284180
5400.986222	0.101184	0.247597	1335.552246
5400.987111	0.099481	0.247597	1423.991089
5400.988053	0.098833	0.247597	1517.091797
5400.988959	0.099976	0.247597	1607.669678
5401.984976	0.691670	0.238859	307.793091
5401.985880	0.403092	0.238859	672.188354
5401.986814	0.098855	0.238859	764.518921
5401.987718	0.098921	0.238859	853.943420
5401.988629	0.100232	0.238859	945.254700
5401.989519	0.100236	0.238859	1034.464355
5401.990457	0.098899	0.238859	1127.231567
5401.991356	0.099320	0.238859	1216.520264
5401.992255	0.099954	0.238859	1306.378540
5401.993146	0.100305	0.238859	1395.750488
5401.994106	0.098588	0.238859	1490.394653
5401.995016	0.098547	0.238859	1580.072754
5403.009999	0.728309	0.247351	320.456116
5403.010973	0.377476	0.247351	688.117310
5403.011868	0.099170	0.247351	776.874390
5403.012791	0.099694	0.247351	868.891602
5403.013704	0.099470	0.247351	959.707886
5403.014626	0.099203	0.247351	1051.172974
5403.015533	0.099591	0.247351	1141.502075
5403.016421	0.099738	0.247351	1230.068970
5403.017356	0.098866	0.247351	1322.508667
5403.018278	0.099100	0.247351	1413.879150
5403.019178	0.099723	0.247351	1503.629761
5403.020068	0.099745	0.247351	1592.402710
5404.022232	0.704418	0.237808	310.648193
5404.023131	0.408091	0.237808	677.521851
5404.024087	0.098232	0.237808	771.432068
5404.025006	0.100181	0.237808	863.498108
5404.025894	0.100027	0.237808	952.321960
5404.026815	0.098756	0.237808	1043.276367
5404.027720	0.098954	0.237808	1132.829590
5404.028628	0.100345	0.237808	1223.943237
5404.029518	0.099675	0.237808	1312.654297
5404.030483	0.098500	0.237808	1407.706543
5404.031381	0.099075	0.237808	1496.675659
5404.032273	0.099547	0.237808	1585.471680
5405.043672	0.690223	0.251540	303.698273
5405.044612	0.418674	0.251540	697.252136
5405.045504	0.099294	0.251540	785.822754
5405.046424	0.099324	0.251540	877.200562
5405.047336	0.098804	0.251540	967.309570
5405.048240	0.099272	0.251540	1057.051880
5405.049139	0.100148	0.251540	1147.084717
5405.050075	0.098800	0.251540	1239.561523
5405.050979	0.099126	0.251540	1329.171387
5405.051882	0.099946	0.251540	1419.422852
5405.052769	0.099847	0.251540	1507.987549
5405.053720	0.098635	0.251540	1601.789673
5406.059468	0.714782	0.238682	315.218658
5406.060448	0.405256	0.238682	712.369873
5406.061364	0.099141	0.238682	803.182678
5406.062261	0.100009	0.238682	892.890320
5406.063195	0.099397	0.238682	985.727112
5406.064101	0.098588	0.238682	1075.047485
5406.065004	0.100063	0.238682	1165.404785
5406.065893	0.099965	0.238682	1254.273315
5406.066839	0.098522	0.238682	1347.474854
5406.067749	0.098763	0.238682	1437.349609
5406.068645	0.100195	0.238682	1527.124634
5406.069537	0.099595	0.238682	1615.963135
5407.076833	0.700759	0.250521	315.341675
5407.077752	0.409105	0.250521	691.309387
5407.078650	0.099283	0.250521	780.465942
5407.079569	0.098690	0.250521	871.162231
5407.080487	0.098668	0.250521	961.739624
5407.081392	0.099518	0.250521	1051.803223
5407.082293	0.099133	0.250521	1141.122314
5407.083242	0.098577	0.250521	1234.671509
5407.084145	0.098632	0.250521	1323.735840
5407.085043	0.100327	0.250521	1413.829590
5407.085928	0.099580	0.250521	1501.958008
5407.086859	0.098635	0.250521	1593.787476
5408.097300	0.707282	0.236382	360.713593
5408.098210	0.404557	0.236382	728.860352
5408.099122	0.099771	0.236382	819.851074
5408.100018	0.099126	0.236382	908.667969
5408.100956	0.098939	0.236382	1001.472961
5408.101862	0.100573	0.236382	1092.591675
5408.102752	0.099811	0.236382	1181.423218
5408.103679	0.099382	0.236382	1273.550659
5408.104600	0.099309	0.236382	1365.014282
5408.105494	0.099957	0.236382	1454.376099
5408.106386	0.099302	0.236382	1542.953247
5408.107331	0.098785	0.236382	1636.305420
