time (s)	coil I (A)	last det (V)	int current (uC)
10214.689246	0.693669	0.139980	310.070251
10214.690167	0.255637	0.139980	545.512085
10214.691071	0.249829	0.139980	771.357605
10214.691964	0.241674	0.139980	987.172119
10214.692905	0.239674	0.139980	1212.705444
10214.693827	0.474163	0.139980	1649.883301
10214.694725	0.102521	0.139980	1741.946899
10214.695653	0.101733	0.139980	1836.355469
10214.696558	0.101071	0.139980	1927.824341
10214.697459	0.102316	0.139980	2020.010742
10214.698344	0.101843	0.139980	2110.142090
10214.699288	0.100638	0.139980	2205.144775
10214.700187	0.100576	0.139980	2295.562744
10214.701085	0.102755	0.139980	2387.836914
10214.701974	0.100898	0.139980	2477.535645
10214.702922	0.099840	0.139980	2572.184082
10215.735798	0.608577	0.121244	287.248169
10215.736719	0.255432	0.121244	522.501160
10215.737625	0.249335	0.121244	748.398437
10215.738524	0.241571	0.121244	965.570801
10215.739464	0.239645	0.121244	1190.836914
10215.740392	0.474302	0.121244	1630.988892
10215.741288	0.101843	0.121244	1722.240479
10215.742223	0.101550	0.121244	1817.189941
10215.743135	0.101125	0.121244	1909.416382
10215.744039	0.103447	0.121244	2002.932739
10215.744928	0.102089	0.121244	2093.689453
10215.745880	0.100642	0.121244	2189.500732
10215.746785	0.101309	0.121244	2281.185059
10215.747674	0.102678	0.121244	2372.466064
10215.748583	0.101646	0.121244	2464.861816
10215.749502	0.100356	0.121244	2557.089355
10216.743378	0.691729	0.125273	307.819183
10216.744277	0.255549	0.125273	537.557983
10216.745213	0.250093	0.125273	771.644836
10216.746144	0.241611	0.125273	996.584961
10216.747056	0.239707	0.125273	1215.197754
10216.747963	0.510308	0.125273	1678.046753
10216.748910	0.100664	0.125273	1773.375610
10216.749817	0.101093	0.125273	1865.066528
10216.750717	0.103066	0.125273	1957.826294
10216.751603	0.101858	0.125273	2048.072510
10216.752542	0.100470	0.125273	2142.413818
10216.753450	0.101667	0.125273	2234.727783
10216.754352	0.102715	0.125273	2327.376465
10216.755281	0.101063	0.125273	2421.264160
10216.756191	0.100184	0.125273	2512.431885
10216.757099	0.100964	0.125273	2604.107422
10217.748964	0.673363	0.142409	303.686737
10217.749875	0.255670	0.142409	536.602234
10217.750782	0.250085	0.142409	763.429749
10217.751692	0.241787	0.142409	983.455994
10217.752643	0.239971	0.142409	1211.668091
10217.753568	0.495527	0.142409	1670.030884
10217.754463	0.103257	0.142409	1762.445801
10217.755399	0.101096	0.142409	1857.071777
10217.756294	0.100851	0.142409	1947.333252
10217.757189	0.103198	0.142409	2039.695679
10217.758077	0.103777	0.142409	2131.849609
10217.759033	0.100488	0.142409	2227.916504
10217.759931	0.101151	0.142409	2318.750244
10217.760829	0.101627	0.142409	2410.011475
10217.761745	0.101104	0.142409	2502.622314
10217.762667	0.100170	0.142409	2594.978760
10218.784217	0.721256	0.120809	324.565247
10218.785119	0.255685	0.120809	555.192993
10218.786071	0.249353	0.120809	792.577087
10218.786988	0.241728	0.120809	1014.242126
10218.787915	0.239861	0.120809	1236.593140
10218.788821	0.498640	0.120809	1688.361084
10218.789771	0.100917	0.120809	1784.231934
10218.790683	0.102671	0.120809	1877.867798
10218.791595	0.103359	0.120809	1972.131592
10218.792505	0.102510	0.120809	2065.415527
10218.793437	0.102828	0.120809	2161.251465
10218.794330	0.103169	0.120809	2253.381348
10218.795221	0.102528	0.120809	2344.733887
10218.796154	0.100913	0.120809	2438.885742
10218.797056	0.102557	0.120809	2531.392578
10218.797975	0.102894	0.120809	2625.952393
10219.803091	0.692849	0.130449	311.089233
10219.803989	0.255311	0.130449	540.358765
10219.804925	0.249803	0.130449	774.174805
10219.805847	0.241666	0.130449	996.991089
10219.806764	0.239777	0.130449	1216.866211
10219.807667	0.506993	0.130449	1674.681274
10219.808607	0.100093	0.130449	1768.768433
10219.809508	0.101539	0.130449	1860.255371
10219.810413	0.103572	0.130449	1953.987793
10219.811305	0.102246	0.130449	2045.191284
10219.812255	0.100946	0.130449	2141.090088
10219.813166	0.101656	0.130449	2233.699219
10219.814064	0.102762	0.130449	2325.979980
10219.814994	0.101257	0.130449	2420.149414
10219.815889	0.100320	0.130449	2509.935547
10219.816800	0.101635	0.130449	2602.524658
10220.793295	0.695687	0.146945	308.189453
10220.794194	0.254982	0.146945	537.417969
10220.795141	0.249412	0.146945	773.610779
10220.796047	0.241498	0.146945	992.407837
10220.796955	0.239593	0.146945	1209.958740
10220.797850	0.427295	0.146945	1592.387695
10220.798819	0.100155	0.146945	1689.437866
10220.799718	0.102645	0.146945	1781.715942
10220.800618	0.103748	0.146945	1875.088745
10220.801549	0.101741	0.146945	1969.809326
10220.802449	0.100525	0.146945	2060.281738
10220.803358	0.102352	0.146945	2153.320068
10220.804255	0.101708	0.146945	2244.552002
10220.805192	0.100140	0.146945	2338.383545
10220.806090	0.100404	0.146945	2428.546387
10220.806986	0.102352	0.146945	2520.254150
10221.843914	0.728840	0.125224	318.503235
10221.844808	0.255165	0.125224	546.620605
10221.845794	0.249459	0.125224	792.587402
10221.846704	0.241699	0.125224	1012.533691
10221.847601	0.239795	0.125224	1227.629761
10221.848550	0.497809	0.125224	1700.050293
10221.849455	0.100708	0.125224	1791.191040
10221.850359	0.103125	0.125224	1884.416016
10221.851250	0.103165	0.125224	1976.336304
10221.852188	0.100778	0.125224	2070.865723
10221.853104	0.102363	0.125224	2164.630371
10221.854003	0.103345	0.125224	2257.537354
10221.854893	0.100986	0.125224	2347.415283
10221.855849	0.100195	0.125224	2443.201904
10221.856757	0.101862	0.125224	2535.692139
10221.857648	0.102437	0.125224	2626.963135
10222.835162	0.673418	0.154808	299.670990
10222.836078	0.255864	0.154808	534.042664
10222.836981	0.250111	0.154808	759.892944
10222.837903	0.241893	0.154808	982.918579
10222.838840	0.239996	0.154808	1207.795166
10222.839758	0.508715	0.154808	1674.795166
10222.840649	0.101591	0.154808	1765.312378
10222.841593	0.100847	0.154808	1860.512085
10222.842499	0.101063	0.154808	1952.075317
10222.843403	0.103264	0.154808	2045.426147
10222.844290	0.102052	0.154808	2135.946289
10222.845225	0.100532	0.154808	2229.943848
10222.846133	0.101294	0.154808	2321.918701
10222.847031	0.102803	0.154808	2414.235596
10222.847958	0.102451	0.154808	2509.207764
10222.848872	0.100181	0.154808	2600.772949
10223.864263	0.706534	0.127706	309.462097
10223.865247	0.256044	0.127706	561.409119
10223.866164	0.249119	0.127706	789.850891
10223.867064	0.241501	0.127706	1007.202209
10223.868011	0.239766	0.127706	1234.260254
10223.868931	0.498805	0.127706	1693.160767
10223.869823	0.101917	0.127706	1784.070312
10223.870707	0.103608	0.127706	1875.660156
10223.871653	0.100847	0.127706	1971.061523
10223.872553	0.101587	0.127706	2062.489746
10223.873460	0.102748	0.127706	2155.681885
10223.874349	0.101759	0.127706	2246.145752
10223.875300	0.100378	0.127706	2341.605713
10223.876208	0.102070	0.127706	2434.285645
10223.877107	0.102902	0.127706	2526.794189
10223.878046	0.100745	0.127706	2621.393311
10224.888319	0.726141	0.140770	356.535400
10224.889237	0.256099	0.140770	591.633972
10224.890138	0.249576	0.140770	816.502319
10224.891034	0.241897	0.140770	1033.241943
10224.891976	0.240007	0.140770	1259.328857
10224.892899	0.492056	0.140770	1713.496216
10224.893797	0.102001	0.140770	1805.092896
10224.894684	0.102726	0.140770	1896.210693
10224.895638	0.101155	0.140770	1992.712402
10224.896545	0.102220	0.140770	2085.426270
10224.897436	0.103202	0.140770	2177.379150
10224.898364	0.101118	0.140770	2271.216797
10224.899280	0.101576	0.140770	2364.260254
10224.900176	0.102290	0.140770	2455.912109
10224.901060	0.101543	0.140770	2545.676025
10224.901999	0.100170	0.140770	2639.735352
10225.885658	0.673400	0.152697	300.336273
10225.886564	0.255707	0.152697	532.006592
10225.887459	0.250184	0.152697	755.921570
10225.888426	0.241857	0.152697	989.796997
10225.889340	0.240037	0.152697	1209.190430
10225.890241	0.507235	0.152697	1666.209229
10225.891173	0.100342	0.152697	1759.727783
10225.892078	0.100737	0.152697	1850.895020
10225.892978	0.102462	0.152697	1943.110962
10225.893871	0.102374	0.152697	2034.531250
10225.894817	0.100822	0.152697	2129.908447
10225.895719	0.101290	0.152697	2221.272217
10225.896620	0.101957	0.152697	2313.135254
10225.897510	0.101997	0.152697	2403.912598
10225.898454	0.100353	0.152697	2498.645508
10225.899361	0.101730	0.152697	2590.914307
10226.921952	0.675689	0.151533	306.762573
10226.922848	0.255659	0.151533	535.833191
10226.923741	0.250265	0.151533	759.319702
10226.924695	0.241879	0.151533	990.071960
10226.925609	0.240117	0.151533	1209.539062
10226.926527	0.501925	0.151533	1670.306274
10226.927423	0.100723	0.151533	1760.553711
10226.928374	0.100796	0.151533	1856.410645
10226.929284	0.101942	0.151533	1949.177979
10226.930185	0.102938	0.151533	2041.925293
10226.931116	0.100902	0.151533	2135.865234
10226.932018	0.100562	0.151533	2226.571777
10226.932916	0.102319	0.151533	2318.454590
10226.933806	0.102056	0.151533	2409.284180
10226.934747	0.100265	0.151533	2503.633545
10226.935657	0.100455	0.151533	2595.047852
10227.918321	0.618530	0.140246	287.616577
10227.919244	0.256132	0.140246	524.026001
10227.920150	0.250052	0.140246	750.573547
10227.921047	0.241816	0.140246	967.482849
10227.921996	0.240004	0.140246	1195.246338
10227.922903	0.479015	0.140246	1629.712891
10227.923791	0.101913	0.140246	1720.211548
10227.924732	0.101477	0.140246	1815.701416
10227.925645	0.101356	0.140246	1908.239624
10227.926545	0.103389	0.140246	2001.289429
10227.927436	0.101785	0.140246	2091.979492
10227.928396	0.100269	0.140246	2188.237305
10227.929305	0.101309	0.140246	2280.326904
10227.930206	0.101060	0.140246	2371.381592
10227.931094	0.101078	0.140246	2461.138672
10227.932040	0.100261	0.140246	2555.985840
10228.956613	0.705732	0.132221	308.405060
10228.957578	0.255967	0.132221	555.413025
10228.958490	0.249961	0.132221	783.377441
10228.959393	0.241772	0.132221	1001.697998
10228.960285	0.239916	0.132221	1215.702881
10228.961240	0.479344	0.132221	1673.476807
10228.962142	0.100847	0.132221	1764.440918
10228.963041	0.104077	0.132221	1858.006226
10228.963959	0.102096	0.132221	1951.730347
10228.964881	0.100931	0.132221	2044.789062
10228.965782	0.102019	0.132221	2136.708252
10228.966680	0.103140	0.132221	2229.327637
10228.967624	0.101177	0.132221	2324.838379
10228.968527	0.100470	0.132221	2415.562744
10228.969429	0.103286	0.132221	2508.726807
10228.970312	0.101843	0.132221	2598.654297
10229.956056	0.704927	0.125567	315.807190
10229.956956	0.255725	0.125567	545.959778
10229.957850	0.250287	0.125567	769.716248
10229.958819	0.241740	0.125567	1003.961853
10229.959720	0.239883	0.125567	1220.096313
10229.960625	0.509568	0.125567	1681.255249
10229.961556	0.101818	0.125567	1776.047485
10229.962458	0.103260	0.125567	1869.188477
10229.963385	0.103488	0.125567	1965.121460
10229.964276	0.104502	0.125567	2058.232666
10229.965217	0.101019	0.125567	2153.291748
10229.966127	0.102198	0.125567	2246.292480
10229.967054	0.103345	0.125567	2342.093018
10229.967944	0.101561	0.125567	2432.482666
10229.968891	0.101653	0.125567	2528.747803
10229.969787	0.102477	0.125567	2620.566895
10230.991328	0.659330	0.112837	296.039093
10230.992255	0.255850	0.112837	533.211670
10230.993153	0.250060	0.112837	757.765381
10230.994104	0.241842	0.112837	987.757202
10230.995022	0.240000	0.112837	1208.077148
10230.995932	0.502698	0.112837	1665.532104
10230.996819	0.103751	0.112837	1757.559448
10230.997758	0.101111	0.112837	1852.502563
10230.998669	0.102118	0.112837	1945.531982
10230.999567	0.103682	0.112837	2038.638062
10231.000484	0.101832	0.112837	2132.018311
10231.001393	0.100686	0.112837	2223.541992
10231.002300	0.101873	0.112837	2315.940430
10231.003198	0.103583	0.112837	2408.957764
10231.004141	0.100027	0.112837	2503.283203
10231.005051	0.100210	0.112837	2594.474365
10231.992778	0.719275	0.125482	310.726746
10231.993719	0.255476	0.125482	551.129761
10231.994642	0.249617	0.125482	781.526001
10231.995566	0.241769	0.125482	1004.920349
10231.996471	0.239908	0.125482	1222.037476
10231.997444	0.497977	0.125482	1706.569336
10231.998345	0.100664	0.125482	1797.267700
10231.999247	0.103561	0.125482	1890.679565
10232.000133	0.102345	0.125482	1981.357178
10232.001068	0.100858	0.125482	2075.659668
10232.001976	0.102257	0.125482	2168.509033
10232.002876	0.102623	0.125482	2260.870117
10232.003808	0.101074	0.125482	2355.071289
10232.004714	0.100137	0.125482	2445.795166
10232.005621	0.101851	0.125482	2538.173584
10232.006513	0.101873	0.125482	2629.043945
10233.033159	0.711617	0.112072	308.130341
10233.034105	0.255956	0.112072	550.264526
10233.035033	0.249928	0.112072	782.197693
10233.035942	0.241875	0.112072	1002.062073
10233.036835	0.240121	0.112072	1216.489990
10233.037795	0.494077	0.112072	1690.804077
10233.038700	0.101484	0.112072	1782.647461
10233.039597	0.103293	0.112072	1875.301636
10233.040480	0.102502	0.112072	1965.811279
10233.041416	0.101063	0.112072	2060.406494
10233.042317	0.102473	0.112072	2152.734863
10233.043212	0.103275	0.112072	2245.166016
10233.044150	0.101261	0.112072	2340.148926
10233.045066	0.101829	0.112072	2433.423828
10233.045968	0.102579	0.112072	2525.950439
10233.046855	0.102722	0.112072	2617.064941
10234.028507	0.694124	0.127585	310.273193
10234.029408	0.255626	0.127585	540.592407
10234.030352	0.249635	0.127585	776.247864
10234.031263	0.241879	0.127585	996.599304
10234.032173	0.239996	0.127585	1214.995972
10234.033072	0.512780	0.127585	1675.984741
10234.034019	0.100389	0.127585	1771.053467
10234.034917	0.101547	0.127585	1862.242310
10234.035815	0.102660	0.127585	1954.430908
10234.036703	0.102700	0.127585	2045.628662
10234.037640	0.100693	0.127585	2139.978271
10234.038545	0.101444	0.127585	2231.785156
10234.039444	0.102821	0.127585	2324.221191
10234.040372	0.100393	0.127585	2417.385986
10234.041277	0.100133	0.127585	2508.006348
10234.042181	0.102323	0.127585	2600.506348
10235.065811	0.718832	0.133233	317.723633
10235.066705	0.255798	0.133233	546.407349
10235.067651	0.250452	0.133233	783.334595
10235.068580	0.241875	0.133233	1008.036499
10235.069492	0.240059	0.133233	1226.969971
10235.070393	0.506722	0.133233	1683.526855
10235.071343	0.100397	0.133233	1778.903809
10235.072247	0.102407	0.133233	1871.479980
10235.073166	0.103140	0.133233	1966.265259
10235.074053	0.101748	0.133233	2056.515869
10235.074994	0.101653	0.133233	2152.171143
10235.075895	0.103389	0.133233	2245.324219
10235.076786	0.104235	0.133233	2338.197266
10235.077713	0.101254	0.133233	2432.059326
10235.078624	0.101935	0.133233	2524.921875
10235.079543	0.102213	0.133233	2618.855713
10236.068315	0.694783	0.129913	316.126129
10236.069209	0.255483	0.129913	544.528259
10236.070147	0.249778	0.129913	778.819885
10236.071059	0.241798	0.129913	999.339722
10236.071969	0.239960	0.129913	1217.703125
10236.072874	0.504386	0.129913	1674.172485
10236.073835	0.099965	0.129913	1770.238525
10236.074732	0.101799	0.129913	1861.552490
10236.075640	0.103575	0.129913	1955.598999
10236.076543	0.101591	0.129913	2047.335327
10236.077460	0.100613	0.129913	2139.597168
10236.078364	0.102187	0.129913	2231.974609
10236.079255	0.102480	0.129913	2323.284668
10236.080186	0.101188	0.129913	2417.490479
10236.081094	0.100558	0.129913	2508.797119
10236.081998	0.104099	0.129913	2602.902832
10237.081087	0.555795	0.151449	272.895172
10237.082024	0.255974	0.151449	512.742920
10237.082963	0.248840	0.151449	746.403992
10237.083858	0.241681	0.151449	962.708374
10237.084818	0.239857	0.151449	1192.971191
10237.085723	0.488145	0.151449	1634.741943
10237.086615	0.102070	0.151449	1725.788696
10237.087551	0.101265	0.151449	1820.572388
10237.088464	0.103132	0.151449	1914.732178
10237.089383	0.102649	0.151449	2009.066528
10237.090279	0.102118	0.151449	2100.564209
10237.091218	0.100532	0.151449	2194.963867
10237.092139	0.101730	0.151449	2288.656982
10237.093056	0.103044	0.151449	2383.148682
10237.093943	0.101089	0.151449	2472.814453
10237.094892	0.101125	0.151449	2568.782471
10238.125511	0.719293	0.113546	310.015350
10238.126457	0.255381	0.113546	551.605652
10238.127367	0.249972	0.113546	779.080078
10238.128281	0.241604	0.113546	999.906128
10238.129177	0.239667	0.113546	1214.647583
10238.130148	0.499120	0.113546	1699.292969
10238.131038	0.100704	0.113546	1788.919800
10238.131940	0.103766	0.113546	1882.516602
10238.132832	0.102308	0.113546	1973.775635
10238.133784	0.100785	0.113546	2069.722900
10238.134692	0.103121	0.113546	2163.357178
10238.135589	0.104352	0.113546	2256.960693
10238.136517	0.101180	0.113546	2350.856201
10238.137417	0.100228	0.113546	2441.061523
10238.138313	0.102202	0.113546	2532.634766
10238.139201	0.102986	0.113546	2624.086182
10239.107548	0.659769	0.146933	296.896179
10239.108452	0.255476	0.146933	527.846558
10239.109348	0.250115	0.146933	751.949341
10239.110305	0.241794	0.146933	983.346619
10239.111225	0.239912	0.146933	1204.065796
10239.112126	0.506605	0.146933	1660.517090
10239.113066	0.102158	0.146933	1756.545776
10239.113976	0.100939	0.146933	1848.400024
10239.114871	0.102484	0.146933	1940.123291
10239.115762	0.102894	0.146933	2031.802124
10239.116713	0.100836	0.146933	2127.697266
10239.117613	0.100712	0.146933	2218.337891
10239.118520	0.102913	0.146933	2311.679687
10239.119408	0.101990	0.146933	2402.246582
10239.120348	0.100254	0.146933	2496.485352
10239.121261	0.100979	0.146933	2588.679199
10240.160212	0.691157	0.139070	304.109192
10240.161132	0.255992	0.139070	539.622253
10240.162039	0.250258	0.139070	766.605896
10240.162977	0.241930	0.139070	993.536194
10240.163891	0.240059	0.139070	1212.949707
10240.164806	0.500720	0.139070	1671.108643
10240.165694	0.102869	0.139070	1762.456055
10240.166641	0.100983	0.139070	1858.086670
10240.167543	0.101726	0.139070	1949.843628
10240.168446	0.103337	0.139070	2043.157349
10240.169335	0.101730	0.139070	2133.594971
10240.170282	0.100602	0.139070	2228.864990
10240.171189	0.101349	0.139070	2320.788330
10240.172084	0.102825	0.139070	2412.816406
10240.173020	0.100785	0.139070	2507.151123
10240.173923	0.099668	0.139070	2597.151367
10241.156575	0.657437	0.129333	297.161316
10241.157489	0.255894	0.129333	531.048035
10241.158404	0.250016	0.129333	759.812561
10241.159297	0.241959	0.129333	975.882141
10241.160257	0.239912	0.129333	1206.197754
10241.161179	0.493513	0.129333	1661.216919
10241.162077	0.103011	0.129333	1753.721191
10241.163029	0.101616	0.129333	1850.459839
10241.163932	0.101082	0.129333	1941.736450
10241.164825	0.103469	0.129333	2034.134521
10241.165717	0.102997	0.129333	2126.007812
10241.166649	0.100671	0.129333	2219.833496
10241.167547	0.101470	0.129333	2310.953369
10241.168454	0.103000	0.129333	2404.374756
10241.169350	0.101660	0.129333	2495.462158
10241.170282	0.100151	0.129333	2588.803223
10242.166217	0.715345	0.155920	313.321289
10242.167186	0.255824	0.155920	561.214722
10242.168092	0.249584	0.155920	787.337585
10242.168988	0.241725	0.155920	1003.923035
10242.169922	0.239868	0.155920	1227.959961
10242.170859	0.488683	0.155920	1685.855835
10242.171759	0.102649	0.155920	1778.239868
10242.172653	0.102792	0.155920	1870.135742
10242.173605	0.100759	0.155920	1966.058594
10242.174514	0.102034	0.155920	2058.807129
10242.175415	0.101935	0.155920	2150.650391
10242.176304	0.101931	0.155920	2241.267090
10242.177251	0.100470	0.155920	2336.412109
10242.178156	0.101887	0.155920	2428.620117
10242.179042	0.102187	0.155920	2519.158203
10242.179972	0.101082	0.155920	2613.164062
10243.211726	0.718597	0.129333	316.182861
10243.212678	0.255853	0.129333	559.755188
10243.213591	0.249771	0.129333	787.795654
10243.214493	0.241802	0.129333	1005.900879
10243.215386	0.240095	0.129333	1220.305908
10243.216359	0.480337	0.129333	1687.673706
10243.217271	0.100470	0.129333	1779.302368
10243.218175	0.103967	0.129333	1873.288818
10243.219063	0.102660	0.129333	1964.450806
10243.220023	0.100891	0.129333	2061.306152
10243.220927	0.102334	0.129333	2153.816162
10243.221819	0.102389	0.129333	2245.146973
10243.222764	0.100778	0.129333	2340.381836
10243.223667	0.099928	0.129333	2430.616699
10243.224566	0.102023	0.129333	2522.335205
10243.225453	0.102678	0.129333	2613.410889
10244.210169	0.731810	0.126320	356.391602
10244.211083	0.255681	0.126320	590.084167
10244.212026	0.249001	0.126320	824.892578
10244.212925	0.241728	0.126320	1042.206543
10244.213891	0.239843	0.126320	1273.894409
10244.214820	0.485325	0.126320	1724.761108
10244.215706	0.101851	0.126320	1815.000732
10244.216625	0.102140	0.126320	1908.867310
10244.217553	0.102693	0.126320	2004.166260
10244.218451	0.103337	0.126320	2096.963135
10244.219340	0.103107	0.126320	2188.625000
10244.220270	0.100646	0.126320	2282.225586
10244.221187	0.101730	0.126320	2375.511719
10244.222112	0.101052	0.126320	2468.985107
10244.222999	0.102697	0.126320	2560.076904
10244.223951	0.100573	0.126320	2655.822021
10245.218764	0.716605	0.155332	313.156494
10245.219710	0.256073	0.155332	555.401550
10245.220632	0.249712	0.155332	785.635986
10245.221539	0.241890	0.155332	1005.029907
10245.222483	0.240103	0.155332	1231.686768
10245.223407	0.504353	0.155332	1697.708984
10245.224305	0.102762	0.155332	1789.989624
10245.225192	0.102689	0.155332	1881.074951
10245.226140	0.100726	0.155332	1976.563477
10245.227040	0.100730	0.155332	2067.220459
10245.227941	0.103037	0.155332	2160.056885
10245.228829	0.100917	0.155332	2249.670898
10245.229756	0.100309	0.155332	2342.657227
10245.230663	0.101602	0.155332	2434.809814
10245.231561	0.103315	0.155332	2527.587158
10245.232502	0.100682	0.155332	2622.329346
10246.273500	0.687393	0.121760	311.388855
10246.274402	0.255981	0.121760	542.284119
10246.275294	0.250540	0.121760	765.765381
10246.276240	0.241967	0.121760	994.665710
10246.277161	0.240106	0.121760	1215.803467
10246.278073	0.500691	0.121760	1672.433594
10246.279013	0.101385	0.121760	1767.735962
10246.279926	0.101016	0.121760	1859.963257
10246.280827	0.104121	0.121760	1953.776367
10246.281720	0.102971	0.121760	2045.729614
10246.282668	0.100840	0.121760	2141.325684
10246.283567	0.100873	0.121760	2232.010254
10246.284471	0.103271	0.121760	2325.367676
10246.285361	0.101843	0.121760	2416.008301
10246.286295	0.100375	0.121760	2509.758301
10246.287205	0.101873	0.121760	2602.462402
10247.255548	0.729635	0.130179	356.791534
10247.256462	0.255894	0.130179	590.678223
10247.257370	0.249415	0.130179	817.147278
10247.258275	0.241436	0.130179	1035.646484
10247.259223	0.239572	0.130179	1262.760254
10247.260144	0.491169	0.130179	1715.127319
10247.261043	0.103411	0.130179	1808.093506
10247.261933	0.102052	0.130179	1898.919800
10247.262886	0.100887	0.130179	1995.065552
10247.263790	0.101898	0.130179	2087.181641
10247.264689	0.103143	0.130179	2179.907471
10247.265638	0.101166	0.130179	2275.913818
10247.266539	0.100400	0.130179	2366.374512
10247.267433	0.103923	0.130179	2459.281982
10247.268326	0.102268	0.130179	2550.607422
10247.269254	0.100184	0.130179	2643.578369
10248.279507	0.687268	0.150466	307.208832
10248.280428	0.255776	0.150466	542.778870
10248.281336	0.250067	0.150466	769.839844
10248.282281	0.241882	0.150466	998.418640
10248.283189	0.240077	0.150466	1216.408447
10248.284099	0.510780	0.150466	1681.218262
10248.284984	0.101770	0.150466	1771.284668
10248.285931	0.101074	0.150466	1867.001953
10248.286828	0.101744	0.150466	1958.266602
10248.287732	0.103704	0.150466	2052.014648
10248.288626	0.101613	0.150466	2142.856201
10248.289571	0.100408	0.150466	2237.741455
10248.290476	0.101312	0.150466	2329.428955
10248.291373	0.102656	0.150466	2421.511719
10248.292295	0.100466	0.150466	2514.141602
10248.293196	0.100126	0.150466	2604.354980
10249.320910	0.700232	0.123319	306.001373
10249.321805	0.255670	0.123319	534.826172
10249.322785	0.249749	0.123319	779.579712
10249.323697	0.241831	0.123319	1000.129639
10249.324603	0.239985	0.123319	1217.556396
10249.325558	0.502108	0.123319	1697.069702
10249.326457	0.100126	0.123319	1787.082764
10249.327356	0.102448	0.123319	1879.183105
10249.328246	0.101653	0.123319	1969.654175
10249.329178	0.100631	0.123319	2063.442383
10249.330084	0.101506	0.123319	2155.407227
10249.330985	0.103224	0.123319	2248.411865
10249.331892	0.101045	0.123319	2340.059570
10249.332825	0.100411	0.123319	2433.743408
10249.333732	0.101953	0.123319	2526.214844
10249.334627	0.103165	0.123319	2618.547852
10250.316244	0.693501	0.128729	306.527405
10250.317140	0.255623	0.128729	535.565186
10250.318035	0.250734	0.128729	759.971802
10250.318980	0.242117	0.128729	988.772095
10250.319898	0.240249	0.128729	1209.320679
10250.320823	0.507777	0.128729	1679.014526
10250.321709	0.102455	0.128729	1769.789551
10250.322652	0.100953	0.128729	1864.988525
10250.323557	0.102817	0.128729	1958.038208
10250.324449	0.103788	0.128729	2050.616943
10250.325377	0.100840	0.128729	2144.196289
10250.326287	0.100243	0.128729	2235.417236
10250.327188	0.102821	0.128729	2328.059082
10250.328080	0.102528	0.128729	2419.514160
10250.329010	0.100012	0.128729	2512.525391
10250.329911	0.100653	0.128729	2603.213867
10251.327958	0.687272	0.152109	310.646820
10251.328858	0.255908	0.152109	540.964233
10251.329824	0.249833	0.152109	782.302673
10251.330730	0.241787	0.152109	1001.361816
10251.331661	0.239989	0.152109	1224.791626
10251.332568	0.420403	0.152109	1606.096924
10251.333519	0.102371	0.152109	1703.451416
10251.334427	0.102920	0.152109	1796.902710
10251.335319	0.103781	0.152109	1889.474976
10251.336249	0.101338	0.152109	1983.719238
10251.337164	0.102850	0.152109	2077.827393
10251.338084	0.103524	0.152109	2173.069580
10251.338973	0.102019	0.152109	2263.764404
10251.339931	0.101818	0.152109	2361.305664
10251.340828	0.102334	0.152109	2453.099365
10251.341716	0.102631	0.152109	2544.235352
10252.380624	0.700909	0.121683	309.101074
10252.381520	0.255927	0.121683	538.411255
10252.382494	0.249917	0.121683	781.830383
10252.383404	0.241864	0.121683	1001.926636
10252.384307	0.240081	0.121683	1218.719360
10252.385277	0.502731	0.121683	1706.368164
10252.386176	0.100503	0.121683	1796.720337
10252.387080	0.103868	0.121683	1890.617432
10252.387963	0.103418	0.121683	1981.935547
10252.388894	0.100950	0.121683	2075.919678
10252.389803	0.101481	0.121683	2168.165527
10252.390705	0.103392	0.121683	2261.425293
10252.391619	0.102261	0.121683	2354.891602
10252.392533	0.100309	0.121683	2446.573975
10252.393438	0.101250	0.121683	2538.205322
10252.394333	0.102502	0.121683	2629.945068
10253.360586	0.717894	0.140077	312.283997
10253.361508	0.255652	0.140077	547.994995
10253.362450	0.249902	0.140077	783.403015
10253.363368	0.241758	0.140077	1005.336670
10253.364267	0.240018	0.140077	1221.113159
10253.365227	0.508623	0.140077	1709.391357
10253.366134	0.100583	0.140077	1800.620605
10253.367026	0.103044	0.140077	1892.536255
10253.367916	0.103202	0.140077	1984.385986
10253.368853	0.101027	0.140077	2079.047852
10253.369762	0.101924	0.140077	2171.696533
10253.370656	0.102924	0.140077	2263.710205
10253.371580	0.101971	0.140077	2357.931885
10253.372481	0.100400	0.140077	2448.392578
10253.373387	0.102272	0.140077	2541.050781
10253.374278	0.102400	0.140077	2632.289062
10254.392800	0.673945	0.155034	302.601440
10254.393705	0.255392	0.155034	533.731079
10254.394601	0.249910	0.155034	757.650146
10254.395561	0.241710	0.155034	989.691895
10254.396475	0.239868	0.155034	1208.931396
10254.397379	0.510776	0.155034	1670.673218
10254.398266	0.101389	0.155034	1760.605469
10254.399203	0.100975	0.155034	1855.219360
10254.400105	0.102990	0.155034	1948.115845
10254.400997	0.103140	0.155034	2040.116455
10254.401927	0.101576	0.155034	2134.582031
10254.402840	0.101217	0.155034	2226.993164
10254.403739	0.102957	0.155034	2319.551025
10254.404628	0.103110	0.155034	2411.216064
10254.405570	0.100686	0.155034	2506.062256
10254.406476	0.101356	0.155034	2597.890869
10255.423953	0.714639	0.125486	315.870270
10255.424913	0.256069	0.125486	561.696838
10255.425829	0.249983	0.125486	790.681152
10255.426728	0.241710	0.125486	1007.978638
10255.427624	0.239854	0.125486	1222.887329
10255.428580	0.498783	0.125486	1699.723877
10255.429490	0.101008	0.125486	1791.641479
10255.430384	0.103788	0.125486	1884.427856
10255.431299	0.102250	0.125486	1977.986328
10255.432214	0.100807	0.125486	2070.224609
10255.433118	0.103066	0.125486	2163.396729
10255.434010	0.103008	0.125486	2255.279785
10255.434941	0.101184	0.125486	2349.482178
10255.435842	0.100583	0.125486	2440.107910
10255.436741	0.102173	0.125486	2531.961426
10255.437636	0.103066	0.125486	2624.205811
10256.416273	0.566832	0.149020	289.651276
10256.417177	0.256216	0.149020	521.270386
10256.418104	0.249650	0.149020	752.695618
10256.418999	0.241575	0.149020	968.904968
10256.419949	0.239604	0.149020	1196.529297
10256.420872	0.468252	0.149020	1628.725830
10256.421771	0.103528	0.149020	1721.797363
10256.422724	0.102872	0.149020	1819.834717
10256.423638	0.102898	0.149020	1913.883423
10256.424561	0.102067	0.149020	2008.090942
10256.425455	0.102865	0.149020	2100.052246
10256.426419	0.101561	0.149020	2197.957275
10256.427319	0.102517	0.149020	2290.222656
10256.428238	0.102448	0.149020	2384.371826
10256.429124	0.101803	0.149020	2474.569336
10256.430082	0.101821	0.149020	2572.114014
10257.447374	0.719835	0.154732	316.727509
10257.448346	0.256150	0.154732	565.705200
10257.449247	0.249983	0.154732	790.939819
10257.450157	0.241703	0.154732	1010.889404
10257.451060	0.239886	0.154732	1227.506836
10257.452015	0.499076	0.154732	1704.124268
10257.452920	0.101920	0.154732	1796.362061
10257.453815	0.103110	0.154732	1888.645874
10257.454736	0.101261	0.154732	1981.907227
10257.455640	0.101125	0.154732	2073.324707
10257.456541	0.102316	0.154732	2165.511230
10257.457431	0.102268	0.154732	2256.529785
10257.458372	0.100353	0.154732	2350.961670
10257.459267	0.101451	0.154732	2441.760742
10257.460169	0.102748	0.154732	2534.439209
10257.461076	0.101675	0.154732	2626.658203
10258.473416	0.714543	0.127996	311.540955
10258.474346	0.255527	0.127996	549.181396
10258.475288	0.249961	0.127996	784.644592
10258.476207	0.241780	0.127996	1006.840210
10258.477110	0.240066	0.127996	1223.619751
10258.478070	0.502445	0.127996	1705.967041
10258.478973	0.100576	0.127996	1796.787354
10258.479878	0.103044	0.127996	1890.042603
10258.480766	0.102235	0.127996	1980.827393
10258.481702	0.100726	0.127996	2075.107178
10258.482613	0.101001	0.127996	2167.119141
10258.483515	0.102675	0.127996	2259.731689
10258.484440	0.102114	0.127996	2354.187500
10258.485344	0.100547	0.127996	2445.081787
10258.486250	0.102312	0.127996	2537.776367
10258.487149	0.102275	0.127996	2629.721924
10259.463659	0.652207	0.158953	307.189514
10259.464568	0.256051	0.158953	539.939880
10259.465511	0.250225	0.158953	775.901733
10259.466424	0.241615	0.158953	996.496216
10259.467351	0.239725	0.158953	1218.721558
10259.468255	0.499537	0.158953	1670.303345
10259.469196	0.101565	0.158953	1765.875977
10259.470110	0.102883	0.158953	1859.911377
10259.471027	0.103165	0.158953	1954.513916
10259.471919	0.103433	0.158953	2046.775757
10259.472857	0.102092	0.158953	2142.538330
10259.473781	0.103282	0.158953	2237.971436
10259.474680	0.102642	0.158953	2330.246338
10259.475604	0.101832	0.158953	2424.339355
10259.476533	0.101737	0.158953	2518.853027
10259.477455	0.101122	0.158953	2612.087402
10260.519397	0.664105	0.136197	308.144806
10260.520291	0.255894	0.136197	536.913635
10260.521240	0.250089	0.136197	774.248169
10260.522156	0.241714	0.136197	995.658081
10260.523065	0.239839	0.136197	1213.671631
10260.523969	0.397372	0.136197	1572.895752
10260.524920	0.100045	0.136197	1668.038696
10260.525828	0.102656	0.136197	1761.250610
10260.526730	0.102213	0.136197	1853.446899
10260.527657	0.101525	0.136197	1947.560303
10260.528561	0.100452	0.136197	2038.368652
10260.529453	0.101536	0.136197	2128.938477
10260.530338	0.102510	0.136197	2219.659668
10260.531281	0.100122	0.136197	2314.074707
10260.532192	0.100228	0.136197	2405.382568
10260.533093	0.102268	0.136197	2497.526123
10261.499342	0.728730	0.145777	319.912659
10261.500238	0.255663	0.145777	548.986572
10261.501202	0.250096	0.145777	790.079529
10261.502121	0.241659	0.145777	1012.164062
10261.503033	0.239780	0.145777	1230.843628
10261.503930	0.446704	0.145777	1631.537231
10261.504882	0.100184	0.145777	1726.912720
10261.505785	0.101726	0.145777	1818.771362
10261.506677	0.103612	0.145777	1911.193359
10261.507623	0.101528	0.145777	2007.239136
10261.508531	0.100521	0.145777	2098.512451
10261.509425	0.103392	0.145777	2190.945312
10261.510314	0.102023	0.145777	2281.643555
10261.511248	0.100272	0.145777	2375.297852
10261.512151	0.100272	0.145777	2465.843750
10261.513056	0.102638	0.145777	2558.731201
10262.540750	0.729294	0.163695	320.889557
10262.541707	0.255692	0.163695	565.586914
10262.542620	0.249481	0.163695	793.363281
10262.543518	0.241443	0.163695	1010.178955
10262.544452	0.239561	0.163695	1233.928467
10262.545393	0.497494	0.163695	1702.070190
10262.546298	0.101656	0.163695	1794.069336
10262.547188	0.103220	0.163695	1885.935303
10262.548136	0.100811	0.163695	1981.503662
10262.549045	0.102015	0.163695	2074.235596
10262.549939	0.102645	0.163695	2166.000488
10262.550825	0.102488	0.163695	2256.804687
10262.551763	0.100265	0.163695	2350.853271
10262.552666	0.102920	0.163695	2443.790039
10262.553557	0.102448	0.163695	2535.070801
10262.554490	0.102484	0.163695	2630.688477
10263.548382	0.659491	0.138119	297.430450
10263.549286	0.256018	0.138119	528.870789
10263.550179	0.251103	0.138119	753.106201
10263.551140	0.241802	0.138119	985.477722
10263.552045	0.239868	0.138119	1202.558350
10263.552951	0.500046	0.138119	1655.600342
10263.553875	0.102122	0.138119	1749.960693
10263.554788	0.101162	0.138119	1842.321655
10263.555700	0.102385	0.138119	1935.697021
10263.556598	0.103191	0.138119	2028.362427
10263.557532	0.101140	0.138119	2122.827393
10263.558437	0.100778	0.138119	2214.031006
10263.559342	0.102733	0.138119	2307.004395
10263.560235	0.101664	0.138119	2397.790283
10263.561185	0.100184	0.138119	2492.965332
10263.562082	0.100781	0.138119	2583.366211
10264.565205	0.684781	0.166112	304.042969
10264.566115	0.255890	0.166112	536.902771
10264.567024	0.250657	0.166112	764.749756
10264.567974	0.241718	0.166112	994.381409
10264.568886	0.239813	0.166112	1213.091064
10264.569792	0.497805	0.166112	1664.102539
10264.570735	0.100690	0.166112	1759.052979
10264.571632	0.101104	0.166112	1849.742798
10264.572532	0.103011	0.166112	1942.453125
10264.573420	0.103239	0.166112	2034.128906
10264.574348	0.100745	0.166112	2127.619873
10264.575255	0.101667	0.166112	2219.832275
10264.576153	0.103297	0.166112	2312.593018
10264.577065	0.101576	0.166112	2405.230225
10264.577981	0.099866	0.166112	2496.707275
10264.578896	0.101462	0.166112	2589.545410
10265.593287	0.721655	0.141092	314.641693
10265.594242	0.256267	0.141092	559.376709
10265.595160	0.250228	0.141092	789.086243
10265.596072	0.241663	0.141092	1009.482544
10265.597000	0.239839	0.141092	1232.052979
10265.597927	0.506144	0.141092	1701.248291
10265.598835	0.101246	0.141092	1793.179932
10265.599725	0.103477	0.141092	1885.274048
10265.600660	0.101008	0.141092	1979.716797
10265.601560	0.100869	0.141092	2070.499023
10265.602467	0.103652	0.141092	2164.511719
10265.603358	0.101898	0.141092	2255.302979
10265.604315	0.100422	0.141092	2351.407227
10265.605225	0.101107	0.141092	2443.414795
10265.606127	0.102059	0.141092	2535.472412
10265.607048	0.101367	0.141092	2628.831543
10266.596819	0.705322	0.163256	317.395020
10266.597776	0.256025	0.163256	562.411316
10266.598698	0.249833	0.163256	792.757141
10266.599599	0.241531	0.163256	1010.376343
10266.600540	0.239612	0.163256	1235.851074
10266.601469	0.494821	0.163256	1695.539307
10266.602369	0.101279	0.163256	1786.690674
10266.603256	0.102894	0.163256	1877.957886
10266.604204	0.100833	0.163256	1973.547119
10266.605111	0.101906	0.163256	2065.975342
10266.606000	0.103444	0.163256	2157.936768
10266.606933	0.101587	0.163256	2252.717285
10266.607839	0.100312	0.163256	2343.600342
10266.608751	0.101609	0.163256	2436.267578
10266.609648	0.102708	0.163256	2528.396240
10266.610590	0.100173	0.163256	2622.759521
10267.632083	0.724230	0.141233	321.558014
10267.632982	0.255747	0.141233	551.474609
10267.633927	0.250605	0.141233	788.296814
10267.634850	0.241685	0.141233	1011.371643
10267.635764	0.239810	0.141233	1230.557617
10267.636663	0.509608	0.141233	1688.695312
10267.637623	0.100225	0.141233	1784.910889
10267.638528	0.102308	0.141233	1877.500000
10267.639427	0.103378	0.141233	1970.436523
10267.640313	0.102755	0.141233	2061.477539
10267.641258	0.100529	0.141233	2156.477051
10267.642165	0.103220	0.141233	2250.097900
10267.643054	0.102590	0.141233	2341.300781
10267.643986	0.101173	0.141233	2435.593994
10267.644891	0.100887	0.141233	2526.897217
10267.645805	0.101949	0.141233	2620.079102
10268.631505	0.706718	0.154127	315.902740
10268.632400	0.255088	0.154127	544.206421
10268.633332	0.250232	0.154127	777.422607
10268.634267	0.241392	0.154127	1003.123779
10268.635187	0.239326	0.154127	1223.303833
10268.636100	0.512011	0.154127	1690.769409
10268.637040	0.100364	0.154127	1785.111328
10268.637947	0.101125	0.154127	1876.832153
10268.638853	0.103781	0.154127	1970.857300
10268.639744	0.102147	0.154127	2061.870361
10268.640688	0.100767	0.154127	2156.994141
10268.641600	0.102019	0.154127	2250.035400
10268.642491	0.102627	0.154127	2341.476074
10268.643426	0.100935	0.154127	2435.850342
10268.644342	0.100214	0.154127	2527.645996
10268.645240	0.102876	0.154127	2620.028564
10269.667839	0.579595	0.138328	279.364624
10269.668750	0.256069	0.138328	512.643799
10269.669682	0.250181	0.138328	745.812195
10269.670587	0.241641	0.138328	964.496948
10269.671554	0.239696	0.138328	1196.282959
10269.672474	0.489767	0.138328	1646.868408
10269.673368	0.103224	0.138328	1739.150513
10269.674306	0.101946	0.138328	1834.775635
10269.675218	0.102960	0.138328	1928.675293
10269.676128	0.103861	0.138328	2023.188843
10269.677015	0.103678	0.138328	2115.151123
10269.677944	0.100741	0.138328	2208.739502
10269.678837	0.101664	0.138328	2299.525391
10269.679752	0.102660	0.138328	2393.459229
10269.680658	0.102605	0.138328	2486.419434
10269.681610	0.100986	0.138328	2582.558350
10270.669257	0.723241	0.146143	313.163330
10270.670223	0.256066	0.146143	560.522766
10270.671130	0.250107	0.146143	787.370239
10270.672031	0.241718	0.146143	1005.157715
10270.672927	0.239897	0.146143	1220.105835
10270.673888	0.507832	0.146143	1708.132324
10270.674798	0.102642	0.146143	1801.536133
10270.675694	0.104374	0.146143	1895.055054
10270.676626	0.101576	0.146143	1989.723877
10270.677531	0.100858	0.146143	2081.000488
10270.678425	0.103839	0.146143	2173.832764
10270.679312	0.102462	0.146143	2264.716797
10270.680260	0.100239	0.146143	2359.743652
10270.681156	0.100594	0.146143	2449.876221
10270.682055	0.101697	0.146143	2541.301514
10270.682946	0.101620	0.146143	2631.844727
10271.701466	0.679233	0.130997	304.296539
10271.702365	0.255974	0.130997	534.417236
10271.703309	0.250638	0.130997	771.019897
10271.704226	0.241780	0.130997	992.731934
10271.705132	0.239846	0.130997	1210.032593
10271.706036	0.494714	0.130997	1657.254395
10271.706995	0.100419	0.130997	1753.555908
10271.707902	0.101744	0.130997	1845.838013
10271.708796	0.103499	0.130997	1938.365723
10271.709715	0.101924	0.130997	2032.033691
10271.710629	0.100726	0.130997	2124.097656
10271.711531	0.101960	0.130997	2216.065918
10271.712427	0.103022	0.130997	2308.374023
10271.713362	0.100507	0.130997	2402.347656
10271.714265	0.100964	0.130997	2493.518555
10271.715173	0.102902	0.130997	2586.953125
10272.708065	0.663560	0.143070	299.928925
10272.708963	0.255740	0.143070	529.583252
10272.709925	0.249851	0.143070	769.940002
10272.710831	0.241710	0.143070	988.929443
10272.711735	0.239908	0.143070	1205.806641
10272.712631	0.480099	0.143070	1635.975220
10272.713570	0.100239	0.143070	1730.099854
10272.714479	0.101777	0.143070	1822.615479
10272.715376	0.103546	0.143070	1915.496338
10272.716300	0.101587	0.143070	2009.362671
10272.717228	0.100488	0.143070	2102.615723
10272.718131	0.102448	0.143070	2195.125732
10272.719025	0.102711	0.143070	2286.949463
10272.719963	0.100349	0.143070	2381.076904
10272.720863	0.100653	0.143070	2471.664551
10272.721756	0.102902	0.143070	2563.555664
10273.732042	0.720571	0.129519	313.448517
10273.732979	0.255959	0.129519	553.282532
10273.733895	0.250514	0.129519	782.753296
10273.734798	0.241864	0.129519	1001.156494
10273.735693	0.240088	0.129519	1216.035156
10273.736655	0.505452	0.129519	1702.279663
10273.737554	0.100521	0.129519	1792.648315
10273.738454	0.102971	0.129519	1885.322388
10273.739341	0.102217	0.129519	1975.988647
10273.740283	0.100997	0.129519	2071.128174
10273.741190	0.102257	0.129519	2163.875244
10273.742080	0.103085	0.129519	2255.620605
10273.743014	0.101378	0.129519	2350.307861
10273.743920	0.100437	0.129519	2441.303711
10273.744822	0.103030	0.129519	2534.236572
10273.745716	0.101814	0.129519	2625.258301
10274.745802	0.720604	0.152516	317.065857
10274.746780	0.255989	0.152516	567.422852
10274.747701	0.249437	0.152516	797.154541
10274.748603	0.241571	0.152516	1015.051636
10274.749537	0.239700	0.152516	1238.931152
10274.750461	0.497175	0.152516	1698.321167
10274.751353	0.101953	0.152516	1789.263306
10274.752237	0.103740	0.152516	1880.969727
10274.753178	0.100778	0.152516	1975.801392
10274.754079	0.101532	0.152516	2067.281738
10274.754985	0.103733	0.152516	2161.263672
10274.755874	0.101550	0.152516	2251.541992
10274.756827	0.100294	0.152516	2347.122314
10274.757728	0.101876	0.152516	2438.912842
10274.758630	0.103246	0.152516	2532.040527
10274.759563	0.101689	0.152516	2626.916748
10275.757545	0.678340	0.135529	310.001312
10275.758451	0.256029	0.135529	541.963623
10275.759350	0.250565	0.135529	767.221741
10275.760300	0.241750	0.135529	996.884705
10275.761217	0.239810	0.135529	1216.790039
10275.762149	0.497399	0.135529	1680.365601
10275.763040	0.102499	0.135529	1771.692017
10275.764032	0.101177	0.135529	1872.059326
10275.764938	0.103048	0.135529	1965.420898
10275.765856	0.102158	0.135529	2059.202148
10275.766745	0.101536	0.135529	2149.467285
10275.767700	0.102129	0.135529	2247.000488
10275.768592	0.102426	0.135529	2338.364014
10275.769479	0.103517	0.135529	2430.183350
10275.770413	0.100206	0.135529	2523.776123
10275.771315	0.102012	0.135529	2615.790771
10276.790737	0.705132	0.155517	313.078522
10276.791636	0.255333	0.155517	542.623108
10276.792572	0.250371	0.155517	776.970459
10276.793497	0.241274	0.155517	1000.149292
10276.794416	0.239344	0.155517	1220.106934
10276.795329	0.503317	0.155517	1679.635010
10276.796280	0.100602	0.155517	1775.307373
10276.797180	0.101122	0.155517	1866.317017
10276.798079	0.102953	0.155517	1958.871704
10276.798964	0.102257	0.155517	2049.369141
10276.799907	0.100470	0.155517	2144.112305
10276.800798	0.101521	0.155517	2234.567627
10276.801700	0.102140	0.155517	2326.697754
10276.802634	0.101023	0.155517	2421.053223
10276.803539	0.099906	0.155517	2511.468262
10276.804444	0.102261	0.155517	2604.014160
10277.787125	0.614788	0.141740	293.253693
10277.788029	0.255886	0.141740	524.574829
10277.788957	0.250060	0.141740	756.630371
10277.789859	0.241674	0.141740	974.619934
10277.790834	0.239784	0.141740	1208.409302
10277.791747	0.479154	0.141740	1645.876953
10277.792640	0.102250	0.141740	1737.186035
10277.793576	0.101862	0.141740	1832.528442
10277.794491	0.103502	0.141740	1927.232910
10277.795408	0.102502	0.141740	2021.227661
10277.796297	0.102806	0.141740	2112.622559
10277.797246	0.101147	0.141740	2208.611572
10277.798141	0.101931	0.141740	2299.839844
10277.799029	0.102155	0.141740	2390.552979
10277.799951	0.100844	0.141740	2483.530762
10277.800888	0.101202	0.141740	2578.357422
10278.832656	0.635328	0.145233	324.017456
10278.833576	0.256329	0.145233	559.840454
10278.834477	0.249760	0.145233	784.873779
10278.835369	0.241710	0.145233	1000.479248
10278.836318	0.239890	0.145233	1228.135010
10278.837247	0.492470	0.145233	1685.639160
10278.838142	0.102499	0.145233	1777.375610
10278.839073	0.101810	0.145233	1872.161011
10278.839982	0.101078	0.145233	1964.040771
10278.840885	0.102572	0.145233	2056.663330
10278.841779	0.102869	0.145233	2148.627930
10278.842729	0.100763	0.145233	2244.352783
10278.843631	0.101539	0.145233	2335.941162
10278.844529	0.103480	0.145233	2428.866455
10278.845414	0.102675	0.145233	2519.733398
10278.846351	0.100214	0.145233	2613.633545
10279.821772	0.720059	0.152307	317.545837
10279.822663	0.255366	0.152307	545.077148
10279.823638	0.250144	0.152307	788.967590
10279.824542	0.241348	0.152307	1007.145874
10279.825471	0.239458	0.152307	1229.602417
10279.826398	0.450344	0.152307	1647.071533
10279.827342	0.101089	0.152307	1742.499390
10279.828242	0.103832	0.152307	1835.947998
10279.829131	0.103931	0.152307	1928.342407
10279.830062	0.101591	0.152307	2022.923218
10279.830968	0.102697	0.152307	2115.966309
10279.831887	0.102847	0.152307	2210.482422
10279.832775	0.103004	0.152307	2301.950195
10279.833713	0.100854	0.152307	2396.551758
10279.834600	0.102902	0.152307	2487.825439
10279.835489	0.101741	0.152307	2578.272949
10280.860114	0.706791	0.140161	315.935486
10280.861012	0.256077	0.140161	545.892334
10280.861903	0.251294	0.140161	769.795227
10280.862854	0.241864	0.140161	999.807922
10280.863772	0.239971	0.140161	1220.101074
10280.864683	0.507601	0.140161	1682.525879
10280.865605	0.100499	0.140161	1775.186157
10280.866518	0.100756	0.140161	1867.176025
10280.867425	0.102740	0.140161	1960.361694
10280.868318	0.103154	0.140161	2052.478516
10280.869274	0.100573	0.140161	2148.625732
10280.870177	0.100748	0.140161	2239.601318
10280.871076	0.103162	0.140161	2332.343506
10280.871961	0.101008	0.140161	2421.735840
10280.872899	0.100188	0.140161	2515.712158
10280.873807	0.100906	0.140161	2607.334473
10281.869771	0.690978	0.157568	304.030243
10281.870675	0.255337	0.157568	534.854797
10281.871571	0.250598	0.157568	759.390747
10281.872530	0.241644	0.157568	991.127625
10281.873441	0.239835	0.157568	1209.617432
10281.874348	0.493381	0.157568	1657.114258
10281.875278	0.102100	0.157568	1752.066895
10281.876162	0.104432	0.157568	1844.385132
10281.877109	0.102557	0.157568	1941.506958
10281.878017	0.102429	0.157568	2034.512695
10281.878939	0.103011	0.157568	2129.489258
10281.879827	0.102480	0.157568	2220.491943
10281.880777	0.103718	0.157568	2319.024414
10281.881699	0.101418	0.157568	2412.532227
10281.882594	0.103085	0.157568	2504.792969
10281.883531	0.102034	0.157568	2600.398437
10282.881480	0.732854	0.149302	318.791504
10282.882439	0.255846	0.149302	564.147766
10282.883349	0.249972	0.149302	791.622192
10282.884255	0.241710	0.149302	1010.611633
10282.885156	0.239875	0.149302	1226.739502
10282.886120	0.502500	0.149302	1711.149536
10282.887029	0.101561	0.149302	1803.468750
10282.887924	0.103938	0.149302	1896.493286
10282.888860	0.100983	0.149302	1991.013062
10282.889761	0.100814	0.149302	2081.846680
10282.890660	0.101576	0.149302	2173.163330
10282.891552	0.101818	0.149302	2263.984619
10282.892496	0.100470	0.149302	2358.828369
10282.893398	0.101979	0.149302	2450.813232
10282.894294	0.103077	0.149302	2543.170654
10282.895200	0.101243	0.149302	2634.896484
10283.915741	0.673759	0.147324	302.517609
10283.916656	0.255981	0.147324	536.740601
10283.917561	0.250734	0.147324	763.654541
10283.918485	0.241871	0.147324	987.143677
10283.919407	0.239974	0.147324	1208.400024
10283.920327	0.509843	0.147324	1677.455078
10283.921221	0.101239	0.147324	1767.962769
10283.922179	0.100836	0.147324	1864.563843
10283.923075	0.101067	0.147324	1955.119751
10283.923980	0.102433	0.147324	2047.821533
10283.924865	0.101942	0.147324	2138.040283
10283.925805	0.100679	0.147324	2232.678223
10283.926715	0.102155	0.147324	2325.638916
10283.927614	0.103290	0.147324	2418.496338
10283.928532	0.101261	0.147324	2511.453857
10283.929436	0.100118	0.147324	2601.960937
10284.919267	0.677029	0.159389	305.339966
10284.920187	0.255355	0.159389	540.266724
10284.921093	0.250071	0.159389	766.830872
10284.922040	0.241428	0.159389	995.463379
10284.922945	0.239531	0.159389	1212.239136
10284.923861	0.490455	0.159389	1661.496216
10284.924751	0.102323	0.159389	1752.563721
10284.925696	0.101016	0.159389	1848.023437
10284.926602	0.102118	0.159389	1940.542236
10284.927501	0.103964	0.159389	2034.005493
10284.928427	0.101580	0.159389	2128.068115
10284.929332	0.100660	0.159389	2219.165771
10284.930246	0.103037	0.159389	2313.341797
10284.931136	0.102909	0.159389	2404.930664
10284.932073	0.100305	0.159389	2498.916504
10284.932970	0.100371	0.159389	2588.949463
10285.936078	0.692450	0.142317	303.985535
10285.936983	0.255546	0.142317	535.254333
10285.937880	0.250642	0.142317	760.080322
10285.938854	0.241597	0.142317	995.395508
10285.939765	0.239703	0.142317	1213.765259
10285.940679	0.510670	0.142317	1680.517822
10285.941613	0.101305	0.142317	1775.136597
10285.942536	0.101118	0.142317	1868.468628
10285.943443	0.104436	0.142317	1963.192139
10285.944333	0.104319	0.142317	2056.035889
10285.945258	0.100854	0.142317	2149.326172
10285.946166	0.101678	0.142317	2241.650146
10285.947064	0.102975	0.142317	2334.121582
10285.947958	0.101162	0.142317	2424.560547
10285.948912	0.100254	0.142317	2520.202881
10285.949815	0.101246	0.142317	2611.628418
10286.971337	0.705238	0.159107	308.894257
10286.972315	0.255919	0.159107	559.183228
10286.973232	0.249207	0.159107	787.705627
10286.974135	0.241315	0.159107	1005.612793
10286.975074	0.239517	0.159107	1230.518921
10286.975992	0.492506	0.159107	1682.639526
10286.976892	0.103030	0.159107	1775.366333
10286.977782	0.103601	0.159107	1867.571289
10286.978726	0.101224	0.159107	1963.127075
10286.979622	0.102224	0.159107	2054.719971
10286.980526	0.103407	0.159107	2148.199951
10286.981420	0.101682	0.159107	2239.103760
10286.982375	0.100389	0.159107	2334.975586
10286.983282	0.102356	0.159107	2427.812500
10286.984181	0.102924	0.159107	2520.340820
10286.985118	0.100312	0.159107	2614.333740
10287.960521	0.714492	0.156448	312.947571
10287.961470	0.255352	0.156448	555.276184
10287.962396	0.250056	0.156448	786.828186
10287.963302	0.241597	0.156448	1005.714783
10287.964196	0.239744	0.156448	1220.045654
10287.965160	0.501427	0.156448	1703.421265
10287.966061	0.100880	0.156448	1794.314209
10287.966959	0.104535	0.156448	1888.186523
10287.967845	0.102517	0.156448	1979.016602
10287.968784	0.100833	0.156448	2073.698242
10287.969693	0.101085	0.156448	2165.584717
10287.970590	0.103810	0.156448	2258.702148
10287.971524	0.101166	0.156448	2353.190918
10287.972434	0.100144	0.156448	2444.322021
10287.973339	0.102338	0.156448	2536.937500
10287.974228	0.101869	0.156448	2627.499023
10289.005055	0.563760	0.146111	275.678528
10289.005970	0.256066	0.146111	509.978607
10289.006881	0.249873	0.146111	737.612915
10289.007777	0.241648	0.146111	954.129517
10289.008742	0.239751	0.146111	1185.489258
10289.009660	0.499413	0.146111	1643.950195
10289.010552	0.103011	0.146111	1735.836426
10289.011498	0.101741	0.146111	1832.083130
10289.012399	0.101096	0.146111	1923.170776
10289.013296	0.102477	0.146111	2015.092529
10289.014194	0.102883	0.146111	2107.481689
10289.015130	0.100573	0.146111	2201.617676
10289.016030	0.101111	0.146111	2292.617432
10289.016936	0.103729	0.146111	2386.596191
10289.017825	0.101576	0.146111	2476.897217
10289.018759	0.099946	0.146111	2570.247070
10290.009553	0.705150	0.164231	313.086670
10290.010453	0.255634	0.164231	543.156860
10290.011402	0.250382	0.164231	780.769409
10290.012323	0.241718	0.164231	1003.391235
10290.013236	0.239729	0.164231	1222.263794
10290.014143	0.512413	0.164231	1687.022705
10290.015103	0.100338	0.164231	1783.347290
10290.016000	0.102078	0.164231	1874.910889
10290.016897	0.104000	0.164231	1968.199097
10290.017801	0.102411	0.164231	2060.778564
10290.018735	0.100580	0.164231	2154.720215
10290.019633	0.102528	0.164231	2246.790527
10290.020530	0.102250	0.164231	2338.508545
10290.021453	0.100287	0.164231	2431.073242
10290.022357	0.099910	0.164231	2521.391602
10290.023259	0.102660	0.164231	2613.990723
10291.024330	0.721322	0.153773	315.217712
10291.025297	0.256110	0.153773	562.875732
10291.026217	0.249525	0.153773	792.438843
10291.027119	0.241824	0.153773	1010.563843
10291.028063	0.240084	0.153773	1237.203369
10291.028986	0.498772	0.153773	1697.569946
10291.029884	0.103242	0.153773	1790.281494
10291.030771	0.103378	0.153773	1881.977539
10291.031707	0.101067	0.153773	1976.576172
10291.032621	0.101558	0.153773	2069.399902
10291.033519	0.103583	0.153773	2162.417236
10291.034435	0.102429	0.153773	2256.242432
10291.035353	0.100239	0.153773	2348.261963
10291.036261	0.101891	0.153773	2440.778809
10291.037155	0.101605	0.153773	2531.613770
10291.038100	0.100272	0.153773	2626.371094
10292.057554	0.687198	0.157673	305.116119
10292.058521	0.256256	0.157673	552.915771
10292.059440	0.249968	0.157673	782.636597
10292.060335	0.241575	0.157673	998.845947
10292.061282	0.239828	0.157673	1225.962891
10292.062203	0.485284	0.157673	1672.909912
10292.063100	0.103506	0.157673	1765.754639
10292.063989	0.103158	0.157673	1857.462036
10292.064940	0.101063	0.157673	1953.573120
10292.065851	0.101290	0.157673	2045.848633
10292.066746	0.104154	0.157673	2139.066406
10292.067668	0.101847	0.157673	2232.969238
10292.068575	0.100320	0.157673	2323.959229
10292.069479	0.101140	0.157673	2415.389893
10292.070374	0.102041	0.157673	2506.716553
10292.071314	0.100371	0.157673	2601.065430
10293.060046	0.719275	0.166487	314.323120
10293.060940	0.255798	0.166487	543.006836
10293.061910	0.250598	0.166487	786.087036
10293.062813	0.241750	0.166487	1004.387695
10293.063741	0.239799	0.166487	1226.920776
10293.064658	0.468278	0.166487	1656.331299
10293.065589	0.100474	0.166487	1749.872314
10293.066489	0.102664	0.166487	1842.269531
10293.067375	0.103506	0.166487	1933.975708
10293.068305	0.100895	0.166487	2027.807861
10293.069220	0.101415	0.166487	2120.602295
10293.070126	0.102605	0.166487	2213.562500
10293.071017	0.102422	0.166487	2304.820312
10293.071982	0.100104	0.166487	2401.420410
10293.072891	0.102272	0.166487	2494.385498
10293.073781	0.101587	0.166487	2584.797852
10294.082020	0.659286	0.148573	300.634369
10294.082926	0.255319	0.148573	531.953003
10294.083820	0.250283	0.148573	755.706177
10294.084774	0.241208	0.148573	985.819092
10294.085686	0.239440	0.148573	1204.188110
10294.086598	0.500427	0.148573	1660.577759
10294.087537	0.100767	0.148573	1755.197632
10294.088441	0.100770	0.148573	1846.293945
10294.089352	0.103700	0.148573	1940.764648
10294.090249	0.101686	0.148573	2031.976807
10294.091194	0.100554	0.148573	2127.000488
10294.092091	0.100686	0.148573	2217.315918
10294.092990	0.102957	0.148573	2309.873779
10294.093879	0.101829	0.148573	2400.399414
10294.094813	0.100232	0.148573	2494.016113
10294.095722	0.101063	0.148573	2585.882568
10295.111156	0.718949	0.164940	346.533386
10295.112082	0.255934	0.164940	583.528137
10295.112999	0.249631	0.164940	812.440063
10295.113898	0.241509	0.164940	1029.556396
10295.114839	0.239747	0.164940	1255.158569
10295.115777	0.492854	0.164940	1717.455566
10295.116682	0.102224	0.164940	1809.968384
10295.117568	0.103282	0.164940	1901.476685
10295.118512	0.100972	0.164940	1996.793945
10295.119412	0.103162	0.164940	2089.639404
10295.120298	0.103282	0.164940	2181.147705
10295.121238	0.101689	0.164940	2276.735840
10295.122140	0.100803	0.164940	2367.660400
10295.123047	0.102715	0.164940	2460.822754
10295.123934	0.101422	0.164940	2550.784180
10295.124867	0.099825	0.164940	2643.921387
10296.103370	0.723867	0.163320	315.606079
10296.104331	0.255791	0.163320	561.421265
10296.105241	0.249459	0.163320	788.429138
10296.106143	0.241608	0.163320	1006.359253
10296.107042	0.239791	0.163320	1221.931641
10296.108009	0.507748	0.163320	1712.923828
10296.108917	0.100979	0.163320	1804.612793
10296.109812	0.103964	0.163320	1897.660278
10296.110744	0.101656	0.163320	1992.404175
10296.111646	0.100723	0.163320	2083.256104
10296.112549	0.102612	0.163320	2175.915039
10296.113437	0.103015	0.163320	2267.392578
10296.114388	0.100554	0.163320	2363.019531
10296.115287	0.100690	0.163320	2453.539551
10296.116182	0.103004	0.163320	2545.728271
10296.117074	0.101301	0.163320	2636.089111
10297.151980	0.680797	0.161451	313.847473
10297.152888	0.256025	0.161451	546.318481
10297.153786	0.250448	0.161451	771.220764
10297.154747	0.241904	0.161451	1003.690796
10297.155650	0.240179	0.161451	1220.572876
10297.156564	0.491364	0.161451	1669.679199
10297.157455	0.102627	0.161451	1761.119873
10297.158418	0.100807	0.161451	1858.196899
10297.159317	0.102323	0.161451	1950.185303
10297.160207	0.103385	0.161451	2042.197998
10297.161134	0.100953	0.161451	2135.781738
10297.162040	0.101199	0.161451	2227.467773
10297.162935	0.102480	0.161451	2319.187744
10297.163824	0.102195	0.161451	2410.039062
10297.164776	0.100411	0.161451	2505.630615
10297.165677	0.102067	0.161451	2597.592773
10298.141151	0.677963	0.164065	301.015381
10298.142075	0.255798	0.164065	537.373047
10298.142977	0.250074	0.164065	762.940186
10298.143919	0.242014	0.164065	990.917542
10298.144818	0.240256	0.164065	1206.907959
10298.145728	0.494993	0.164065	1657.351318
10298.146619	0.102187	0.164065	1748.400391
10298.147570	0.100975	0.164065	1844.427979
10298.148472	0.102012	0.164065	1936.442505
10298.149374	0.103462	0.164065	2029.765137
10298.150262	0.103074	0.164065	2121.294678
10298.151205	0.100598	0.164065	2216.158691
10298.152119	0.101829	0.164065	2309.229980
10298.153009	0.102935	0.164065	2400.841797
10298.153948	0.100389	0.164065	2495.107422
10298.154841	0.099979	0.164065	2584.388916
10299.180496	0.714990	0.149294	315.310669
10299.181450	0.255571	0.149294	559.125671
10299.182365	0.249408	0.149294	787.333984
10299.183290	0.241593	0.149294	1010.807495
10299.184182	0.239810	0.149294	1224.717651
10299.185139	0.475470	0.149294	1679.742432
10299.186047	0.101448	0.149294	1771.856934
10299.186940	0.103136	0.149294	1863.957397
10299.187869	0.101803	0.149294	1958.532349
10299.188789	0.102675	0.149294	2052.992920
10299.189686	0.102543	0.149294	2144.973633
10299.190579	0.102411	0.149294	2236.426514
10299.191526	0.100389	0.149294	2331.495361
10299.192428	0.102605	0.149294	2424.045166
10299.193355	0.102268	0.149294	2518.847656
10299.194244	0.101594	0.149294	2609.165039
10300.185061	0.645890	0.170414	299.047028
10300.185965	0.256117	0.170414	530.576721
10300.186900	0.249946	0.170414	764.276489
10300.187817	0.241868	0.170414	986.069153
10300.188731	0.239985	0.170414	1205.415771
10300.189632	0.501237	0.170414	1657.030029
10300.190580	0.099771	0.170414	1751.612427
10300.191474	0.100873	0.170414	1841.792725
10300.192373	0.102004	0.170414	1933.494629
10300.193261	0.102096	0.170414	2024.155884
10300.194220	0.100587	0.170414	2120.618896
10300.195131	0.100990	0.170414	2212.620850
10300.196035	0.102715	0.170414	2305.475098
10300.196967	0.101027	0.170414	2399.631836
10300.197863	0.100287	0.170414	2489.488770
10300.198759	0.102111	0.170414	2580.979980
10301.202896	0.720384	0.160005	318.409943
10301.203786	0.255593	0.160005	545.887939
10301.204742	0.249778	0.160005	784.675537
10301.205661	0.241794	0.160005	1006.884644
10301.206587	0.240026	0.160005	1229.148437
10301.207500	0.402059	0.160005	1596.228638
10301.208470	0.102177	0.160005	1695.339844
10301.209373	0.102579	0.160005	1787.968994
10301.210293	0.103000	0.160005	1882.729492
10301.211179	0.102389	0.160005	1973.446045
10301.212135	0.102521	0.160005	2071.455811
10301.213054	0.102334	0.160005	2165.500732
10301.213939	0.102246	0.160005	2255.988525
10301.214874	0.101356	0.160005	2350.756592
10301.215774	0.102565	0.160005	2443.064941
10301.216664	0.103096	0.160005	2534.820068
10302.227920	0.692175	0.179220	304.557159
10302.228825	0.255604	0.179220	535.879028
10302.229723	0.250327	0.179220	760.672791
10302.230695	0.241963	0.179220	995.860718
10302.231601	0.240077	0.179220	1213.370361
10302.232515	0.509985	0.179220	1679.497070
10302.233447	0.101005	0.179220	1773.633423
10302.234349	0.101063	0.179220	1864.792480
10302.235246	0.103696	0.179220	1957.808105
10302.236135	0.103524	0.179220	2049.841064
10302.237087	0.100477	0.179220	2145.495361
10302.237986	0.100686	0.179220	2236.012207
10302.238888	0.102063	0.179220	2328.072998
10302.239778	0.101818	0.179220	2418.690674
10302.240730	0.099987	0.179220	2513.877930
10302.241640	0.100616	0.179220	2605.438965
10303.233482	0.718916	0.169906	314.885193
10303.234377	0.255300	0.169906	543.378967
10303.235334	0.249617	0.169906	782.262146
10303.236264	0.241644	0.169906	1006.991333
10303.237171	0.239854	0.169906	1224.538452
10303.238134	0.499904	0.169906	1705.945557
10303.239035	0.101360	0.169906	1797.270752
10303.239954	0.102993	0.169906	1891.921509
10303.240846	0.103630	0.169906	1984.359863
10303.241794	0.103627	0.169906	2082.597900
10303.242713	0.103030	0.169906	2177.282227
10303.243602	0.102177	0.169906	2268.117187
10303.244552	0.100503	0.169906	2363.594971
10303.245450	0.101876	0.169906	2455.079834
10303.246364	0.102312	0.169906	2548.593018
10303.247262	0.101470	0.169906	2639.712891
10304.265669	0.722384	0.173278	314.959442
10304.266625	0.255494	0.173278	559.212097
10304.267552	0.249276	0.173278	790.291077
10304.268461	0.241410	0.173278	1009.732666
10304.269358	0.239572	0.173278	1224.628296
10304.270321	0.506858	0.173278	1712.732422
10304.271228	0.100803	0.173278	1804.160889
10304.272140	0.102960	0.173278	1898.060547
10304.273031	0.101565	0.173278	1988.554932
10304.273973	0.100529	0.173278	2083.252930
10304.274877	0.102642	0.173278	2176.041016
10304.275767	0.102814	0.173278	2267.545166
10304.276695	0.100851	0.173278	2361.134766
10304.277603	0.099957	0.173278	2451.895996
10304.278508	0.103495	0.173278	2545.558838
10304.279399	0.102660	0.173278	2637.028809
10305.268197	0.645535	0.162929	293.072754
10305.269102	0.255513	0.162929	524.311768
10305.269999	0.250148	0.162929	748.694275
10305.270951	0.241692	0.162929	978.784973
10305.271852	0.239755	0.162929	1194.803955
10305.272786	0.487405	0.162929	1650.040039
10305.273678	0.101005	0.162929	1740.136230
10305.274636	0.101125	0.162929	1837.014404
10305.275547	0.102645	0.162929	1930.524292
10305.276440	0.104385	0.162929	2023.739868
10305.277372	0.100979	0.162929	2117.852295
10305.278293	0.101466	0.162929	2211.302490
10305.279212	0.102598	0.162929	2305.589844
10305.280098	0.102360	0.162929	2396.280518
10305.281045	0.100521	0.162929	2491.474121
10305.281940	0.102019	0.162929	2582.781250
10306.302413	0.733407	0.159336	321.232239
10306.303379	0.255575	0.159336	568.117676
10306.304286	0.249086	0.159336	794.038391
10306.305195	0.241523	0.159336	1013.583191
10306.306087	0.239821	0.159336	1227.503174
10306.307051	0.488101	0.159336	1698.032104
10306.307958	0.100997	0.159336	1789.636719
10306.308855	0.103143	0.159336	1882.156250
10306.309782	0.101191	0.159336	1975.960693
10306.310693	0.100627	0.159336	2067.632324
10306.311593	0.103385	0.159336	2160.678711
10306.312483	0.101558	0.159336	2251.064941
10306.313438	0.100415	0.159336	2346.961426
10306.314334	0.101136	0.159336	2437.579590
10306.315227	0.103165	0.159336	2529.706299
10306.316114	0.101576	0.159336	2619.804199
10307.305925	0.719095	0.158663	312.087433
10307.306889	0.255718	0.158663	558.599365
10307.307815	0.249294	0.158663	789.445984
10307.308727	0.241783	0.158663	1009.952515
10307.309622	0.240007	0.158663	1224.759033
10307.310578	0.499094	0.158663	1701.893066
10307.311472	0.101832	0.158663	1792.931152
10307.312358	0.103480	0.158663	1884.614624
10307.313279	0.102583	0.158663	1979.093628
10307.314198	0.101755	0.158663	2072.606934
10307.315105	0.102755	0.158663	2165.805908
10307.315996	0.103564	0.158663	2258.081787
10307.316923	0.100734	0.158663	2351.461914
10307.317835	0.101060	0.158663	2443.628174
10307.318734	0.102568	0.158663	2535.837158
10307.319623	0.102491	0.158663	2626.952148
10308.339148	0.706088	0.151195	310.678558
10308.340115	0.256044	0.151195	558.272827
10308.341027	0.249481	0.151195	785.799683
10308.341929	0.241743	0.151195	1003.852051
10308.342884	0.239945	0.151195	1232.999512
10308.343806	0.500709	0.151195	1694.653442
10308.344700	0.101715	0.151195	1785.586670
10308.345591	0.103198	0.151195	1877.536255
10308.346524	0.100997	0.151195	1971.766724
10308.347429	0.101049	0.151195	2063.215576
10308.348332	0.103081	0.151195	2156.297852
10308.349219	0.102257	0.151195	2247.000000
10308.350179	0.100316	0.151195	2343.303467
10308.351090	0.101415	0.151195	2435.692383
10308.351986	0.102385	0.151195	2527.429687
10308.352928	0.100657	0.151195	2622.248291
10309.341650	0.714613	0.158313	317.288177
10309.342548	0.255117	0.158313	546.383423
10309.343495	0.249470	0.158313	782.631714
10309.344418	0.241538	0.158313	1005.571411
10309.345326	0.239590	0.158313	1223.119019
10309.346226	0.460774	0.158313	1637.815552
10309.347170	0.100499	0.158313	1732.686890
10309.348066	0.103367	0.158313	1825.303467
10309.348952	0.103359	0.158313	1916.879883
10309.349887	0.101697	0.158313	2011.966309
10309.350797	0.101759	0.158313	2104.567139
10309.351695	0.103436	0.158313	2197.452881
10309.352584	0.103173	0.158313	2289.173340
10309.353538	0.100287	0.158313	2384.846924
10309.354451	0.101913	0.158313	2477.893311
10309.355353	0.102788	0.158313	2570.608154
10310.375935	0.721608	0.151799	356.474182
10310.376854	0.256296	0.151799	592.010559
10310.377769	0.249229	0.151799	820.054626
10310.378666	0.241937	0.151799	1037.072388
10310.379622	0.240117	0.151799	1266.624390
10310.380542	0.482853	0.151799	1710.848999
10310.381436	0.102982	0.151799	1802.915039
10310.382321	0.103044	0.151799	1894.109375
10310.383255	0.101129	0.151799	1988.563965
10310.384167	0.101635	0.151799	2081.254639
10310.385068	0.102960	0.151799	2174.021729
10310.385998	0.101444	0.151799	2268.364746
10310.386902	0.100466	0.151799	2359.186279
10310.387806	0.102345	0.151799	2451.706055
10310.388696	0.101869	0.151799	2542.369385
10310.389644	0.100016	0.151799	2637.184326
10311.377375	0.687715	0.160923	308.783966
10311.378284	0.255685	0.160923	541.201477
10311.379179	0.250411	0.160923	765.319702
10311.380119	0.241930	0.160923	992.733887
10311.381036	0.240033	0.160923	1212.844116
10311.381968	0.507898	0.160923	1686.205078
10311.382859	0.102660	0.160923	1777.675049
10311.383811	0.101591	0.160923	1874.389282
10311.384711	0.103114	0.160923	1967.191895
10311.385633	0.103381	0.160923	2062.509521
10311.386519	0.102458	0.160923	2153.287842
10311.387460	0.102224	0.160923	2249.480713
10311.388360	0.102653	0.160923	2341.868164
10311.389249	0.103685	0.160923	2434.044434
10311.390188	0.100525	0.160923	2528.437256
10311.391091	0.101539	0.160923	2620.127197
10312.409558	0.695559	0.161701	304.654877
10312.410483	0.255341	0.161701	540.844910
10312.411387	0.249979	0.161701	766.826172
10312.412313	0.241758	0.161701	990.693909
10312.413245	0.239821	0.161701	1214.206665
10312.414170	0.504811	0.161701	1681.156738
10312.415057	0.102151	0.161701	1771.764526
10312.416002	0.101272	0.161701	1867.466553
10312.416904	0.101583	0.161701	1959.094604
10312.417795	0.102572	0.161701	2050.486328
10312.418683	0.101737	0.161701	2140.828857
10312.419614	0.100668	0.161701	2234.550537
10312.420531	0.101305	0.161701	2327.447266
10312.421428	0.101975	0.161701	2418.918945
10312.422352	0.100964	0.161701	2512.209961
10312.423259	0.099946	0.161701	2602.861328
10313.414111	0.673616	0.160460	309.189606
10313.415000	0.255974	0.160460	536.750610
10313.415945	0.250173	0.160460	773.164429
10313.416859	0.241952	0.160460	994.308472
10313.417767	0.240103	0.160460	1212.321533
10313.418668	0.431041	0.160460	1600.689697
10313.419619	0.100269	0.160460	1696.045044
10313.420518	0.101873	0.160460	1787.628418
10313.421415	0.103542	0.160460	1880.505981
10313.422350	0.101228	0.160460	1975.154175
10313.423248	0.100419	0.160460	2065.330078
10313.424152	0.102070	0.160460	2157.601562
10313.425038	0.102975	0.160460	2248.837402
10313.425975	0.100155	0.160460	2342.682617
10313.426877	0.100605	0.160460	2433.428711
10313.427781	0.102957	0.160460	2526.501465
10314.437078	0.700906	0.177403	314.005768
10314.437974	0.254989	0.177403	542.475952
10314.438918	0.249536	0.177403	778.038025
10314.439835	0.241490	0.177403	999.484802
10314.440740	0.239604	0.177403	1216.326904
10314.441641	0.511853	0.177403	1677.506470
10314.442589	0.099873	0.177403	1772.186157
10314.443488	0.101224	0.177403	1863.186890
10314.444392	0.102590	0.177403	1955.928589
10314.445279	0.101847	0.177403	2046.266846
10314.446226	0.100367	0.177403	2141.314697
10314.447141	0.101744	0.177403	2234.410889
10314.448043	0.103070	0.177403	2327.380127
10314.448972	0.100847	0.177403	2421.067139
10314.449875	0.100166	0.177403	2511.517090
10314.450775	0.102850	0.177403	2604.082520
10315.459089	0.541926	0.158269	274.214691
10315.460009	0.255883	0.158269	509.626678
10315.460914	0.249294	0.158269	735.238159
10315.461809	0.241710	0.158269	951.568787
10315.462763	0.239832	0.158269	1180.368042
10315.463681	0.474203	0.158269	1615.686279
10315.464577	0.103564	0.158269	1708.479980
10315.465507	0.101730	0.158269	1803.088623
10315.466421	0.100997	0.158269	1895.400146
10315.467320	0.104615	0.158269	1989.449463
10315.468208	0.103154	0.158269	2081.050537
10315.469166	0.100583	0.158269	2177.409424
10315.470065	0.101144	0.158269	2268.337646
10315.470962	0.103828	0.158269	2361.471436
10315.471849	0.100759	0.158269	2450.844971
10315.472778	0.099976	0.158269	2543.722168
10316.462590	0.706461	0.187305	347.578918
10316.463514	0.256066	0.187305	584.183594
10316.464416	0.249514	0.187305	809.245361
10316.465308	0.241842	0.187305	1024.968506
10316.466265	0.240099	0.187305	1254.743164
10316.467183	0.499680	0.187305	1713.449585
10316.468073	0.102089	0.187305	1804.308472
10316.468983	0.102048	0.187305	1897.172485
10316.469899	0.101125	0.187305	1989.803467
10316.470797	0.102982	0.187305	2082.281494
10316.471687	0.103165	0.187305	2174.098633
10316.472622	0.101082	0.187305	2268.609863
10316.473533	0.102217	0.187305	2361.729248
10316.474437	0.102524	0.187305	2454.411377
10316.475322	0.101272	0.187305	2544.037109
10316.476278	0.099635	0.187305	2639.288086
10317.507027	0.678069	0.158063	303.774841
10317.507924	0.255626	0.158063	533.071533
10317.508874	0.249847	0.158063	770.426575
10317.509783	0.241714	0.158063	990.144470
10317.510695	0.239821	0.158063	1208.860840
10317.511596	0.427588	0.158063	1594.117554
10317.512543	0.100023	0.158063	1688.839478
10317.513447	0.101807	0.158063	1780.872681
10317.514340	0.103667	0.158063	1873.447266
10317.515279	0.101858	0.158063	1969.091797
10317.516184	0.100547	0.158063	2060.086670
10317.517082	0.102316	0.158063	2151.966064
10317.517974	0.102620	0.158063	2243.502686
10317.518925	0.100488	0.158063	2339.067139
10317.519822	0.100646	0.158063	2429.346436
10317.520717	0.102264	0.158063	2520.873047
10318.490069	0.701030	0.180255	312.659485
10318.490970	0.255190	0.180255	542.586060
10318.491862	0.249917	0.180255	765.512024
10318.492801	0.241582	0.180255	992.357544
10318.493714	0.239597	0.180255	1211.109741
10318.494650	0.513809	0.180255	1692.034546
10318.495538	0.102129	0.180255	1782.724976
10318.496494	0.101803	0.180255	1880.048584
10318.497393	0.102946	0.180255	1972.596680
10318.498287	0.103129	0.180255	2064.793701
10318.499202	0.102173	0.180255	2158.281738
10318.500143	0.102821	0.180255	2255.036377
10318.501049	0.101942	0.180255	2347.395996
10318.501941	0.102916	0.180255	2439.197266
10318.502889	0.100305	0.180255	2534.286621
10318.503799	0.102198	0.180255	2627.287354
10319.543754	0.729023	0.174088	319.312286
10319.544648	0.255564	0.174088	547.786499
10319.545624	0.249749	0.174088	791.541077
10319.546545	0.241761	0.174088	1014.203369
10319.547445	0.239989	0.174088	1230.193481
10319.548391	0.495890	0.174088	1699.305298
10319.549291	0.100206	0.174088	1789.490967
10319.550186	0.103044	0.174088	1881.715698
10319.551073	0.102990	0.174088	1973.067383
10319.552021	0.100902	0.174088	2068.722656
10319.552913	0.101133	0.174088	2158.933105
10319.553811	0.104421	0.174088	2252.703613
10319.554696	0.102250	0.174088	2343.194580
10319.555663	0.100199	0.174088	2440.086914
10319.556568	0.101147	0.174088	2531.625488
10319.557474	0.102103	0.174088	2624.131104
10320.531912	0.728687	0.160790	319.164703
10320.532872	0.256135	0.160790	565.054565
10320.533792	0.249302	0.160790	794.412170
10320.534723	0.241802	0.160790	1019.529602
10320.535625	0.239886	0.160790	1235.907227
10320.536597	0.489060	0.160790	1711.273682
10320.537499	0.102455	0.160790	1803.687988
10320.538387	0.104425	0.160790	1896.417480
10320.539346	0.101440	0.160790	1993.698853
10320.540246	0.102235	0.160790	2085.710449
10320.541155	0.102264	0.160790	2178.668701
10320.542052	0.102715	0.160790	2270.803955
10320.542998	0.100331	0.160790	2365.716797
10320.543899	0.102671	0.160790	2458.223389
10320.544791	0.101814	0.160790	2549.041504
10320.545723	0.099976	0.160790	2642.218750
10321.564101	0.728547	0.191051	316.918091
10321.565062	0.255575	0.191051	562.525635
10321.565977	0.249434	0.191051	790.757385
10321.566884	0.241659	0.191051	1009.942017
10321.567780	0.239791	0.191051	1224.794922
10321.568752	0.498585	0.191051	1709.419800
10321.569658	0.101594	0.191051	1801.464233
10321.570551	0.102964	0.191051	1893.411011
10321.571467	0.101796	0.191051	1986.655884
10321.572379	0.100763	0.191051	2078.551758
10321.573280	0.102166	0.191051	2170.602783
10321.574168	0.102429	0.191051	2261.559814
10321.575098	0.100195	0.191051	2354.741455
10321.576001	0.100151	0.191051	2445.178223
10321.576904	0.102374	0.191051	2537.622070
10321.577793	0.101656	0.191051	2627.994629
10322.583018	0.660073	0.165906	305.613892
10322.583919	0.256036	0.165906	536.302673
10322.584814	0.250338	0.165906	760.355286
10322.585755	0.241901	0.165906	987.983765
10322.586681	0.240055	0.165906	1210.274658
10322.587614	0.504214	0.165906	1680.706177
10322.588505	0.102821	0.165906	1772.319702
10322.589468	0.101752	0.165906	1870.306641
10322.590375	0.102726	0.165906	1963.479004
10322.591265	0.102986	0.165906	2055.136475
10322.592183	0.101210	0.165906	2148.046875
10322.593106	0.101246	0.165906	2241.497314
10322.594005	0.102305	0.165906	2333.469238
10322.594897	0.101104	0.165906	2423.653564
10322.595833	0.100521	0.165906	2517.741455
10322.596743	0.101887	0.165906	2610.458740
10323.587533	0.723409	0.191551	317.576721
10323.588490	0.255773	0.191551	562.351196
10323.589401	0.249401	0.191551	789.555176
10323.590302	0.241494	0.191551	1007.141418
10323.591238	0.239850	0.191551	1231.640869
10323.592165	0.507825	0.191551	1702.394409
10323.593072	0.102133	0.191551	1795.028687
10323.593962	0.103059	0.191551	1886.751221
10323.594901	0.100715	0.191551	1981.322876
10323.595803	0.100924	0.191551	2072.356445
10323.596707	0.103297	0.191551	2165.737061
10323.597594	0.101920	0.191551	2256.140137
10323.598547	0.100247	0.191551	2351.675049
10323.599458	0.102089	0.191551	2444.677734
10323.600352	0.103085	0.191551	2536.835449
10323.601288	0.101342	0.191551	2631.691162
10324.624897	0.707787	0.177077	349.646698
10324.625818	0.255604	0.177077	585.058228
10324.626725	0.248950	0.177077	810.856079
10324.627622	0.241575	0.177077	1027.548584
10324.628580	0.239637	0.177077	1257.121216
10324.629508	0.491594	0.177077	1713.320679
10324.630402	0.101865	0.177077	1804.388184
10324.631289	0.103187	0.177077	1895.915283
10324.632232	0.100748	0.177077	1990.920898
10324.633129	0.102825	0.177077	2083.154541
10324.634018	0.103718	0.177077	2175.360107
10324.634951	0.101722	0.177077	2270.267090
10324.635851	0.101473	0.177077	2361.593018
10324.636750	0.103213	0.177077	2454.381348
10324.637638	0.102422	0.177077	2545.332031
10324.638588	0.100063	0.177077	2640.392334
10325.625295	0.700818	0.167361	309.060699
10325.626208	0.255670	0.167361	542.487549
10325.627112	0.250393	0.167361	768.842896
10325.628057	0.241945	0.167361	997.480530
10325.628960	0.240110	0.167361	1214.299683
10325.629873	0.509956	0.167361	1679.889526
10325.630758	0.102836	0.167361	1770.899170
10325.631707	0.100642	0.167361	1866.408569
10325.632605	0.101484	0.167361	1957.541504
10325.633501	0.103239	0.167361	2050.043213
10325.634435	0.101371	0.167361	2144.723633
10325.635345	0.100510	0.167361	2236.187988
10325.636250	0.104180	0.167361	2330.470703
10325.637141	0.102114	0.167361	2421.454590
10325.638091	0.100162	0.167361	2516.608887
10325.638988	0.100389	0.167361	2606.658203
10326.646225	0.705520	0.190137	311.839844
10326.647127	0.255399	0.190137	542.209900
10326.648108	0.249327	0.190137	786.800049
10326.649026	0.241736	0.190137	1008.713562
10326.649923	0.239894	0.190137	1223.898315
10326.650846	0.437443	0.190137	1627.657837
10326.651781	0.100122	0.190137	1721.271973
10326.652687	0.102931	0.190137	1814.527344
10326.653583	0.104282	0.190137	1907.964233
10326.654508	0.101378	0.190137	2001.739014
10326.655417	0.100847	0.190137	2093.409180
10326.656328	0.102960	0.190137	2187.205811
10326.657215	0.102620	0.190137	2278.229492
10326.658172	0.099972	0.190137	2373.902588
10326.659084	0.101210	0.190137	2466.205811
10326.659971	0.102338	0.190137	2556.979248
10327.679438	0.720527	0.170321	317.752563
10327.680332	0.255458	0.170321	546.131836
10327.681283	0.250005	0.170321	783.886475
10327.682202	0.241853	0.170321	1006.149414
10327.683112	0.240070	0.170321	1224.612671
10327.684022	0.466362	0.170321	1649.002319
10327.684973	0.100192	0.170321	1744.284546
10327.685878	0.101653	0.170321	1836.280396
10327.686774	0.103162	0.170321	1928.713257
10327.687715	0.101217	0.170321	2023.958496
10327.688619	0.100851	0.170321	2115.127686
10327.689518	0.103019	0.170321	2207.741699
10327.690404	0.102363	0.170321	2298.435547
10327.691349	0.100258	0.170321	2393.178955
10327.692260	0.100865	0.170321	2485.067383
10327.693168	0.103337	0.170321	2578.897705
10328.667594	0.715181	0.185754	314.679474
10328.668559	0.255553	0.185754	561.288086
10328.669461	0.248998	0.185754	785.884094
10328.670358	0.241520	0.185754	1002.527344
10328.671300	0.239656	0.185754	1228.283081
10328.672229	0.500845	0.185754	1693.567871
10328.673132	0.103268	0.185754	1786.818726
10328.674023	0.103411	0.185754	1878.957642
10328.674977	0.100829	0.185754	1975.148315
10328.675885	0.101752	0.185754	2067.538818
10328.676781	0.102323	0.185754	2159.220215
10328.677681	0.101459	0.185754	2250.533203
10328.678622	0.100437	0.185754	2345.044434
10328.679514	0.102096	0.185754	2436.114014
10328.680404	0.102378	0.185754	2527.230469
10328.681342	0.100404	0.185754	2621.409424
10329.721313	0.666039	0.179856	300.383514
10329.722233	0.255509	0.179856	535.451782
10329.723131	0.249664	0.179856	759.650330
10329.724085	0.241520	0.179856	990.060181
10329.724989	0.239714	0.179856	1206.761963
10329.725910	0.482527	0.179856	1651.169189
10329.726800	0.101470	0.179856	1741.477295
10329.727743	0.100767	0.179856	1836.500244
10329.728651	0.101038	0.179856	1928.242432
10329.729556	0.102543	0.179856	2021.043579
10329.730439	0.101382	0.179856	2110.563721
10329.731379	0.100217	0.179856	2204.768066
10329.732284	0.102206	0.179856	2297.264404
10329.733174	0.101558	0.179856	2387.650635
10329.734115	0.100708	0.179856	2482.416992
10329.735009	0.100045	0.179856	2571.857422
10330.706398	0.710750	0.158768	322.680267
10330.707337	0.255963	0.158768	563.029663
10330.708231	0.249675	0.158768	786.239380
10330.709199	0.241824	0.158768	1020.324768
10330.710121	0.239941	0.158768	1241.550781
10330.711026	0.498157	0.158768	1692.382568
10330.711967	0.100913	0.158768	1787.341797
10330.712866	0.102426	0.158768	1879.422363
10330.713778	0.102426	0.158768	1972.834473
10330.714675	0.102480	0.158768	2064.759521
10330.715628	0.102323	0.158768	2162.273437
10330.716530	0.101766	0.158768	2254.066650
10330.717421	0.102187	0.158768	2345.115723
10330.718362	0.100649	0.158768	2439.826904
10330.719273	0.101726	0.158768	2532.499268
10330.720183	0.102330	0.158768	2625.619873
10331.744729	0.677750	0.193714	300.243347
10331.745631	0.255597	0.193714	530.791748
10331.746526	0.250338	0.193714	754.844360
10331.747491	0.241930	0.193714	988.306763
10331.748394	0.240150	0.193714	1205.162354
10331.749305	0.495718	0.193714	1656.761230
10331.750197	0.102491	0.193714	1748.183594
10331.751146	0.100964	0.193714	1843.998779
10331.752058	0.102162	0.193714	1937.170410
10331.752957	0.102865	0.193714	2029.645996
10331.753883	0.101312	0.193714	2123.461182
10331.754786	0.100499	0.193714	2214.211914
10331.755682	0.102360	0.193714	2305.926025
10331.756570	0.101993	0.193714	2396.496094
10331.757509	0.100009	0.193714	2490.404053
10331.758410	0.100474	0.193714	2580.930908
10332.754388	0.688539	0.167594	307.088318
10332.755306	0.255491	0.167594	541.628784
10332.756212	0.249961	0.167594	768.093384
10332.757148	0.241750	0.167594	994.371826
10332.758067	0.239916	0.167594	1214.854370
10332.758975	0.500977	0.167594	1669.741089
10332.759861	0.102177	0.167594	1760.269531
10332.760808	0.100748	0.167594	1855.678101
10332.761704	0.101034	0.167594	1946.204468
10332.762608	0.101968	0.167594	2038.383301
10332.763503	0.101140	0.167594	2128.903809
10332.764446	0.100195	0.167594	2223.387939
10332.765353	0.102158	0.167594	2316.045410
10332.766253	0.102480	0.167594	2408.277832
10332.767179	0.100137	0.167594	2501.004395
10332.768084	0.099924	0.167594	2591.435791
10333.769170	0.705692	0.197492	312.621613
10333.770065	0.255655	0.197492	541.433289
10333.771014	0.249990	0.197492	778.674011
10333.771932	0.241926	0.197492	1000.762329
10333.772837	0.240081	0.197492	1218.035278
10333.773794	0.491927	0.197492	1688.809814
10333.774700	0.100166	0.197492	1779.560181
10333.775606	0.103110	0.197492	1872.978149
10333.776497	0.103253	0.197492	1964.976685
10333.777448	0.100547	0.197492	2060.596680
10333.778355	0.100726	0.197492	2151.955566
10333.779249	0.103022	0.197492	2244.057617
10333.780165	0.100946	0.197492	2336.524170
10333.781077	0.099910	0.197492	2427.641846
10333.781972	0.101730	0.197492	2518.689941
10333.782868	0.103704	0.197492	2611.608398
10334.800404	0.607430	0.175002	311.611786
10334.801314	0.255652	0.175002	544.255005
10334.802225	0.248804	0.175002	770.915161
10334.803121	0.241421	0.175002	987.228271
10334.804081	0.239586	0.175002	1217.230957
10334.805004	0.494557	0.175002	1673.706909
10334.805902	0.102839	0.175002	1766.056641
10334.806838	0.102224	0.175002	1861.738403
10334.807737	0.101078	0.175002	1952.607422
10334.808635	0.102891	0.175002	2045.003174
10334.809523	0.103770	0.175002	2137.150635
10334.810456	0.100269	0.175002	2230.701172
10334.811361	0.100280	0.175002	2321.454102
10334.812267	0.103132	0.175002	2414.892090
10334.813157	0.102979	0.175002	2506.542969
10334.814109	0.099763	0.175002	2601.517578
10335.799751	0.719158	0.174720	312.114471
10335.800719	0.255886	0.174720	559.812317
10335.801630	0.249305	0.174720	786.929565
10335.802528	0.241934	0.174720	1004.185913
10335.803424	0.240103	0.174720	1219.317749
10335.804381	0.493905	0.174720	1691.984863
10335.805284	0.101547	0.174720	1783.681519
10335.806175	0.102513	0.174720	1875.020996
10335.807098	0.103092	0.174720	1970.174927
10335.808013	0.101290	0.174720	2062.855469
10335.808913	0.102147	0.174720	2154.788086
10335.809805	0.103176	0.174720	2246.821289
10335.810746	0.100280	0.174720	2341.184326
10335.811662	0.100990	0.174720	2433.691162
10335.812557	0.101100	0.174720	2524.175537
10335.813447	0.100558	0.174720	2613.672119
10336.834017	0.687305	0.172654	310.661713
10336.834943	0.255655	0.172654	547.398682
10336.835839	0.249987	0.172654	771.386658
10336.836778	0.241761	0.172654	998.400696
10336.837692	0.239978	0.172654	1217.740601
10336.838603	0.502529	0.172654	1675.544800
10336.839490	0.101906	0.172654	1765.934937
10336.840440	0.100997	0.172654	1861.882324
10336.841350	0.101711	0.172654	1954.439697
10336.842254	0.103638	0.172654	2048.128174
10336.843172	0.101353	0.172654	2141.169922
10336.844083	0.100360	0.172654	2232.597900
10336.844996	0.102279	0.172654	2325.978760
10336.845887	0.102671	0.172654	2417.458496
10336.846830	0.100100	0.172654	2511.852783
10336.847737	0.099807	0.172654	2602.377930
10337.839565	0.713734	0.161934	312.615570
10337.840460	0.255579	0.161934	541.358398
10337.841433	0.249818	0.161934	784.431396
10337.842334	0.241864	0.161934	1002.350891
10337.843227	0.240026	0.161934	1216.693726
10337.844201	0.507920	0.161934	1711.407715
10337.845103	0.102305	0.161934	1803.686523
10337.845991	0.103488	0.161934	1895.583496
10337.846925	0.102627	0.161934	1991.437012
10337.847840	0.101232	0.161934	2084.063965
10337.848745	0.102341	0.161934	2176.682861
10337.849639	0.104132	0.161934	2269.776855
10337.850568	0.100605	0.161934	2363.239258
10337.851475	0.100668	0.161934	2454.544922
10337.852367	0.103337	0.161934	2546.721924
10337.853254	0.102437	0.161934	2637.583008
10338.867678	0.665533	0.179675	300.155579
10338.868581	0.255937	0.179675	531.267151
10338.869473	0.250393	0.179675	754.617798
10338.870428	0.241915	0.179675	985.646912
10338.871335	0.240095	0.179675	1203.413208
10338.872248	0.498442	0.179675	1658.491089
10338.873184	0.100422	0.179675	1752.486450
10338.874082	0.100803	0.179675	1843.007690
10338.874991	0.103059	0.179675	1936.688354
10338.875881	0.102532	0.179675	2027.941650
10338.876820	0.100503	0.179675	2122.313965
10338.877717	0.101371	0.179675	2213.243652
10338.878620	0.102308	0.179675	2305.628174
10338.879510	0.102389	0.179675	2396.754395
10338.880460	0.100042	0.179675	2491.793945
10338.881365	0.101323	0.179675	2583.491455
10339.882458	0.708944	0.166499	316.189056
10339.883366	0.255754	0.166499	548.414062
10339.884314	0.249932	0.166499	785.349243
10339.885244	0.241769	0.166499	1010.194214
10339.886163	0.239967	0.166499	1230.723877
10339.887069	0.502262	0.166499	1685.773193
10339.888021	0.101788	0.166499	1782.675659
10339.888936	0.103004	0.166499	1876.924438
10339.889855	0.104231	0.166499	1972.712646
10339.890741	0.102510	0.166499	2063.536377
10339.891683	0.103187	0.166499	2160.738770
10339.892610	0.102316	0.166499	2255.585449
10339.893506	0.102770	0.166499	2347.667236
10339.894440	0.101426	0.166499	2442.398926
10339.895356	0.101722	0.166499	2535.576660
10339.896276	0.101847	0.166499	2629.275879
10340.898263	0.689725	0.191744	308.996948
10340.899157	0.255099	0.191744	537.055359
10340.900130	0.249174	0.191744	779.501221
10340.901041	0.241542	0.191744	999.545776
10340.901938	0.239711	0.191744	1214.566284
10340.902888	0.467644	0.191744	1658.828125
10340.903797	0.100023	0.191744	1749.749146
10340.904701	0.103879	0.191744	1843.656128
10340.905589	0.102883	0.191744	1935.016479
10340.906528	0.100811	0.191744	2029.677612
10340.907435	0.101019	0.191744	2121.302002
10340.908344	0.102213	0.191744	2214.213867
10340.909236	0.101931	0.191744	2305.136475
10340.910177	0.100214	0.191744	2399.437500
10340.911090	0.101016	0.191744	2491.664795
10340.911985	0.102012	0.191744	2582.965332
10341.923295	0.679552	0.171651	305.118866
10341.924209	0.255927	0.171651	539.035706
10341.925112	0.250543	0.171651	765.276245
10341.926042	0.242025	0.171651	990.359619
10341.926962	0.240146	0.171651	1211.294434
10341.927890	0.511102	0.171651	1685.597412
10341.928784	0.101960	0.171651	1776.750000
10341.929724	0.100854	0.171651	1871.553223
10341.930625	0.101049	0.171651	1962.598022
10341.931527	0.102733	0.171651	2055.263428
10341.932413	0.102166	0.171651	2145.781982
10341.933368	0.100214	0.171651	2241.486084
10341.934268	0.101202	0.171651	2332.568359
10341.935164	0.102162	0.171651	2424.105469
10341.936094	0.101364	0.171651	2518.373535
10341.937000	0.100133	0.171651	2609.093994
10342.928848	0.710786	0.194262	314.878265
10342.929814	0.256007	0.194262	562.181091
10342.930746	0.249089	0.194262	794.332397
10342.931645	0.241659	0.194262	1011.583740
10342.932569	0.239971	0.194262	1233.316650
10342.933505	0.494524	0.194262	1696.191040
10342.934407	0.101913	0.194262	1788.116455
10342.935303	0.102242	0.194262	1879.725708
10342.936230	0.101470	0.194262	1973.788086
10342.937130	0.100887	0.194262	2064.586914
10342.938031	0.103323	0.194262	2157.680664
10342.938920	0.102092	0.194262	2248.440674
10342.939868	0.100422	0.194262	2343.641113
10342.940774	0.100909	0.194262	2435.064941
10342.941674	0.102876	0.194262	2527.653320
10342.942591	0.101968	0.194262	2621.157715
10343.960032	0.678373	0.166519	304.589386
10343.960957	0.255894	0.166519	541.290894
10343.961857	0.250272	0.166519	766.535889
10343.962795	0.242003	0.166519	993.534851
10343.963706	0.240161	0.166519	1212.321655
10343.964617	0.509366	0.166519	1676.354492
10343.965507	0.101997	0.166519	1767.131836
10343.966465	0.100745	0.166519	1863.645142
10343.967369	0.101770	0.166519	1955.645264
10343.968270	0.103674	0.166519	2049.055908
10343.969199	0.101949	0.166519	2143.766846
10343.970100	0.100408	0.166519	2234.234131
10343.971009	0.102506	0.166519	2327.412109
10343.971899	0.103323	0.166519	2419.369385
10343.972831	0.100250	0.166519	2512.802734
10343.973740	0.100488	0.166519	2604.146484
10344.961487	0.714705	0.194258	313.040619
10344.962438	0.255824	0.194258	556.329224
10344.963358	0.250027	0.194258	786.353943
10344.964276	0.241754	0.194258	1008.284241
10344.965173	0.240026	0.194258	1223.587158
10344.966132	0.499607	0.194258	1702.710205
10344.967023	0.100042	0.194258	1791.847168
10344.967925	0.103370	0.194258	1885.087280
10344.968813	0.103077	0.194258	1976.619995
10344.969767	0.100569	0.194258	2072.562744
10344.970673	0.100829	0.194258	2163.913574
10344.971572	0.103345	0.194258	2256.820557
10344.972503	0.101155	0.194258	2350.995605
10344.973406	0.100254	0.194258	2441.524902
10344.974302	0.101646	0.194258	2532.599365
10344.975195	0.102510	0.194258	2624.140625
10345.993740	0.716616	0.161318	361.891174
10345.994668	0.255707	0.161318	599.187073
10345.995594	0.248657	0.161318	829.443665
10345.996487	0.241436	0.161318	1045.045654
10345.997445	0.239506	0.161318	1274.492065
10345.998364	0.420212	0.161318	1660.667236
10345.999288	0.101924	0.161318	1754.844849
10346.000179	0.103286	0.161318	1846.872803
10346.001139	0.102876	0.161318	1945.633789
10346.002062	0.102729	0.161318	2040.453125
10346.002953	0.103250	0.161318	2132.448486
10346.003904	0.103575	0.161318	2230.948730
10346.004810	0.101840	0.161318	2323.215332
10346.005734	0.103213	0.161318	2418.583984
10346.006623	0.102187	0.161318	2509.428711
10346.007575	0.102191	0.161318	2606.714600
10347.000271	0.705681	0.188392	310.499695
10347.001178	0.255223	0.188392	541.987305
10347.002073	0.249803	0.188392	765.561401
10347.003022	0.241604	0.188392	994.843628
10347.003948	0.239652	0.188392	1216.761475
10347.004861	0.491349	0.188392	1665.363037
10347.005807	0.100558	0.188392	1760.490723
10347.006700	0.100983	0.188392	1850.668213
10347.007604	0.103718	0.188392	1944.429565
10347.008495	0.102638	0.188392	2035.880005
10347.009442	0.100616	0.188392	2131.163818
10347.010354	0.101115	0.188392	2223.380371
10347.011251	0.103290	0.188392	2316.031250
10347.012172	0.100909	0.188392	2408.968750
10347.013085	0.100071	0.188392	2500.333496
10347.013994	0.101510	0.188392	2592.606201
10348.026366	0.596067	0.161334	284.323914
10348.027293	0.255817	0.161334	521.465942
10348.028199	0.249437	0.161334	747.456116
10348.029100	0.241805	0.161334	965.322815
10348.030036	0.239967	0.161334	1189.932007
10348.030954	0.474961	0.161334	1625.946167
10348.031848	0.102231	0.161334	1717.341064
10348.032780	0.101693	0.161334	1812.119019
10348.033690	0.102056	0.161334	1904.989624
10348.034592	0.103436	0.161334	1998.289185
10348.035482	0.101741	0.161334	2088.838379
10348.036433	0.100382	0.161334	2184.301758
10348.037334	0.101876	0.161334	2276.092285
10348.038224	0.102202	0.161334	2367.052246
10348.039130	0.100811	0.161334	2458.386719
10348.040052	0.100415	0.161334	2550.969482
10349.040101	0.632567	0.178076	295.408844
10349.041014	0.255623	0.178076	528.792236
10349.041938	0.249489	0.178076	759.319641
10349.042885	0.241454	0.178076	987.976440
10349.043800	0.239575	0.178076	1207.187744
10349.044709	0.485427	0.178076	1648.441162
10349.045639	0.100814	0.178076	1742.198364
10349.046539	0.100935	0.178076	1833.039917
10349.047431	0.103286	0.178076	1925.171143
10349.048318	0.102660	0.178076	2016.230469
10349.049259	0.100448	0.178076	2110.751953
10349.050176	0.101440	0.178076	2203.772949
10349.051073	0.102004	0.178076	2295.270996
10349.051991	0.100822	0.178076	2387.825195
10349.052911	0.099847	0.178076	2479.684814
10349.053818	0.101488	0.178076	2571.734375
10350.059000	0.596312	0.162079	281.459381
10350.059913	0.255498	0.162079	514.729126
10350.060818	0.249602	0.162079	740.618958
10350.061713	0.241520	0.162079	956.779175
10350.062674	0.239619	0.162079	1187.053223
10350.063594	0.496501	0.162079	1643.834595
10350.064491	0.102869	0.162079	1736.107788
10350.065424	0.101876	0.162079	1831.158325
10350.066328	0.100887	0.162079	1922.360596
10350.067230	0.102587	0.162079	2014.893799
10350.068119	0.102177	0.162079	2105.728760
10350.069082	0.100203	0.162079	2202.223877
10350.069979	0.100635	0.162079	2292.493164
10350.070879	0.102535	0.162079	2384.774902
10350.071769	0.101294	0.162079	2474.926514
10350.072702	0.099961	0.162079	2568.190186
10351.079892	0.692959	0.171341	304.209015
10351.080822	0.255839	0.171341	542.138916
10351.081723	0.250228	0.171341	767.594604
10351.082655	0.241901	0.171341	993.046021
10351.083590	0.240051	0.171341	1217.493896
10351.084505	0.499644	0.171341	1674.667725
10351.085396	0.102979	0.171341	1766.421631
10351.086346	0.101049	0.171341	1862.417725
10351.087252	0.102565	0.171341	1955.341309
10351.088180	0.102506	0.171341	2050.467041
10351.089070	0.102235	0.171341	2141.456299
10351.090008	0.101305	0.171341	2236.480225
10351.090910	0.102620	0.171341	2329.043213
10351.091803	0.102784	0.171341	2420.829590
10351.092737	0.101169	0.171341	2515.321777
10351.093644	0.102103	0.171341	2607.929443
10352.089564	0.673304	0.166668	300.293793
10352.090468	0.255417	0.166668	531.191162
10352.091363	0.249906	0.166668	754.857056
10352.092326	0.241512	0.166668	987.433533
10352.093243	0.239634	0.166668	1207.177734
10352.094148	0.505159	0.166668	1664.346313
10352.095088	0.100818	0.166668	1759.115112
10352.095995	0.100983	0.166668	1850.706421
10352.096906	0.103718	0.166668	1945.193726
10352.097805	0.103579	0.166668	2038.311279
10352.098740	0.100679	0.166668	2132.445801
10352.099637	0.100807	0.166668	2222.869629
10352.100543	0.102748	0.166668	2315.959229
10352.101429	0.102063	0.166668	2406.386963
10352.102371	0.100012	0.166668	2500.598389
10352.103279	0.101722	0.166668	2592.962402
10353.120727	0.700525	0.166217	309.631989
10353.121620	0.255505	0.166217	537.798279
10353.122601	0.249767	0.166217	782.819580
10353.123509	0.241747	0.166217	1002.325684
10353.124410	0.239982	0.166217	1218.549194
10353.125350	0.481267	0.166217	1670.940308
10353.126270	0.100492	0.166217	1763.392944
10353.127177	0.103630	0.166217	1857.385742
10353.128065	0.103147	0.166217	1948.980225
10353.128998	0.101096	0.166217	2043.302979
10353.129904	0.102594	0.166217	2136.253174
10353.130804	0.104073	0.166217	2229.919189
10353.131692	0.101862	0.166217	2320.372314
10353.132633	0.099965	0.166217	2414.438965
10353.133525	0.103000	0.166217	2506.315430
10353.134421	0.102074	0.166217	2597.773682
10354.121163	0.715382	0.186568	316.914276
10354.122149	0.256219	0.186568	569.546692
10354.123064	0.249185	0.186568	797.550537
10354.123963	0.241776	0.186568	1014.907227
10354.124908	0.239901	0.186568	1241.613770
10354.125822	0.492729	0.186568	1691.968506
10354.126714	0.102938	0.186568	1783.789429
10354.127603	0.103407	0.186568	1875.718262
10354.128542	0.100957	0.186568	1970.516968
10354.129446	0.100939	0.186568	2061.765625
10354.130348	0.102913	0.186568	2154.592773
10354.131235	0.102444	0.186568	2245.460449
10354.132180	0.100477	0.186568	2340.411621
10354.133093	0.100778	0.186568	2432.421631
10354.133985	0.102839	0.186568	2524.154297
10354.134934	0.100847	0.186568	2619.858154
10355.154378	0.720194	0.173375	312.564240
10355.155326	0.255677	0.173375	554.946533
10355.156242	0.249576	0.173375	783.558533
10355.157145	0.241930	0.173375	1002.021240
10355.158040	0.240062	0.173375	1216.876953
10355.159004	0.473672	0.173375	1673.496582
10355.159916	0.102491	0.173375	1766.968750
10355.160815	0.103671	0.173375	1860.168701
10355.161705	0.103125	0.173375	1951.949951
10355.162649	0.101147	0.173375	2047.433105
10355.163558	0.102037	0.173375	2140.185059
10355.164454	0.103209	0.173375	2232.660645
10355.165400	0.101027	0.173375	2328.231934
10355.166302	0.100862	0.173375	2419.209229
10355.167203	0.103165	0.173375	2512.161133
10355.168092	0.102162	0.173375	2602.982910
10356.163023	0.707179	0.193259	315.401825
10356.163925	0.255623	0.193259	545.973389
10356.164872	0.249767	0.193259	782.502563
10356.165786	0.241857	0.193259	1003.559570
10356.166696	0.239960	0.193259	1221.922852
10356.167595	0.493557	0.193259	1665.630737
10356.168543	0.100042	0.193259	1760.470093
10356.169448	0.101697	0.193259	1852.505615
10356.170342	0.102726	0.193259	1944.342529
10356.171269	0.101005	0.193259	2037.973877
10356.172184	0.100400	0.193259	2129.840332
10356.173095	0.101843	0.193259	2222.619629
10356.173999	0.102861	0.193259	2315.606201
10356.174923	0.100283	0.193259	2408.267822
10356.175830	0.100250	0.193259	2499.194824
10356.176736	0.102308	0.193259	2591.886230
10357.183954	0.715001	0.169274	316.030548
10357.184947	0.256230	0.169274	570.467407
10357.185858	0.249349	0.169274	797.624695
10357.186763	0.241648	0.169274	1016.316101
10357.187659	0.239905	0.169274	1231.270752
10357.188630	0.495934	0.169274	1712.822510
10357.189527	0.101737	0.169274	1804.080688
10357.190428	0.102997	0.169274	1896.880859
10357.191356	0.101228	0.169274	1990.820435
10357.192259	0.100759	0.169274	2081.806152
10357.193154	0.102693	0.169274	2173.716309
10357.194041	0.103011	0.169274	2265.087402
10357.194995	0.100411	0.169274	2360.879883
10357.195902	0.101111	0.169274	2452.587402
10357.196801	0.102997	0.169274	2545.181641
10357.197686	0.101543	0.169274	2635.047119
10358.208980	0.687294	0.183961	308.594879
10358.209881	0.255754	0.183961	539.029602
10358.210775	0.250360	0.183961	762.851562
10358.211716	0.241871	0.183961	990.452515
10358.212634	0.239938	0.183961	1210.715332
10358.213544	0.512227	0.183961	1676.841431
10358.214479	0.101129	0.183961	1771.397217
10358.215382	0.100957	0.183961	1862.561401
10358.216292	0.102510	0.183961	1955.845337
10358.217189	0.103004	0.183961	2048.239990
10358.218128	0.100719	0.183961	2142.815186
10358.219028	0.100514	0.183961	2233.277832
10358.219924	0.102345	0.183961	2324.979004
10358.220814	0.101799	0.183961	2415.580322
10358.221762	0.099869	0.183961	2510.256592
10358.222671	0.101338	0.183961	2602.372803
10359.206363	0.696002	0.181540	311.112976
10359.207261	0.255110	0.181540	540.201599
10359.208222	0.249357	0.181540	779.833374
10359.209135	0.241476	0.181540	1000.300781
10359.210033	0.239685	0.181540	1215.537964
10359.210937	0.488123	0.181540	1656.800781
10359.211895	0.100031	0.181540	1752.630005
10359.212807	0.102905	0.181540	1846.479614
10359.213708	0.102290	0.181540	1938.642944
10359.214593	0.101953	0.181540	2028.871460
10359.215534	0.100807	0.181540	2123.730713
10359.216437	0.102037	0.181540	2215.870361
10359.217327	0.102030	0.181540	2306.677002
10359.218273	0.100206	0.181540	2401.472168
10359.219181	0.100459	0.181540	2492.688965
10359.220076	0.102228	0.181540	2584.182861
10360.249808	0.705820	0.184296	311.972595
10360.250701	0.255231	0.184296	539.893616
10360.251678	0.249532	0.184296	783.686829
10360.252594	0.241838	0.184296	1005.210754
10360.253491	0.239897	0.184296	1220.398804
10360.254439	0.481707	0.184296	1677.056641
10360.255339	0.099950	0.184296	1767.011597
10360.256241	0.104117	0.184296	1860.925537
10360.257132	0.102656	0.184296	1952.392212
10360.258086	0.100529	0.184296	2048.296387
10360.258982	0.101920	0.184296	2139.616943
10360.259881	0.103220	0.184296	2232.411865
10360.260791	0.102261	0.184296	2325.469238
10360.261712	0.100232	0.184296	2417.782959
10360.262620	0.102140	0.184296	2510.525879
10360.263512	0.102693	0.184296	2602.127930
10361.236952	0.687187	0.191128	309.921570
10361.237849	0.255447	0.191128	539.057373
10361.238816	0.249441	0.191128	780.266724
10361.239724	0.241538	0.191128	999.583313
10361.240647	0.239700	0.191128	1220.826172
10361.241558	0.432587	0.191128	1614.912598
10361.242512	0.102081	0.191128	1712.298096
10361.243409	0.102528	0.191128	1804.265747
10361.244298	0.102975	0.191128	1895.810425
10361.245231	0.101005	0.191128	1990.047729
10361.246150	0.102356	0.191128	2084.112793
10361.247066	0.102056	0.191128	2177.595703
10361.247956	0.102418	0.191128	2268.747803
10361.248905	0.101429	0.191128	2365.004395
10361.249804	0.101605	0.191128	2456.347412
10361.250691	0.102700	0.191128	2547.442383
10362.284516	0.662582	0.182946	298.824371
10362.285439	0.255319	0.182946	534.483459
10362.286342	0.249485	0.182946	759.768311
10362.287253	0.241461	0.182946	979.739441
10362.288186	0.239539	0.182946	1203.229004
10362.289097	0.496516	0.182946	1655.555176
10362.289990	0.101635	0.182946	1746.314819
10362.290918	0.101001	0.182946	1840.043701
10362.291831	0.100756	0.182946	1932.033569
10362.292731	0.103693	0.182946	2025.356934
10362.293622	0.102990	0.182946	2117.120605
10362.294561	0.100444	0.182946	2211.437744
10362.295470	0.101276	0.182946	2303.497314
10362.296364	0.102283	0.182946	2394.937988
10362.297274	0.101462	0.182946	2487.268799
10362.298195	0.100217	0.182946	2579.568848
10363.277825	0.730924	0.199184	362.538330
10363.278750	0.255575	0.199184	598.945190
10363.279656	0.248789	0.199184	824.348083
10363.280549	0.241476	0.199184	1039.985962
10363.281507	0.239608	0.199184	1269.530518
10363.282432	0.480498	0.199184	1713.991211
10363.283333	0.101876	0.199184	1805.781738
10363.284222	0.101854	0.199184	1896.330200
10363.285162	0.101331	0.199184	1991.580933
10363.286068	0.103026	0.199184	2084.922607
10363.286959	0.103282	0.199184	2176.947266
10363.287897	0.100521	0.199184	2271.236084
10363.288809	0.100939	0.199184	2363.292236
10363.289709	0.103315	0.199184	2456.276123
10363.290599	0.101766	0.199184	2546.848145
10363.291542	0.099631	0.199184	2640.800537
10364.312022	0.715096	0.177742	318.217896
10364.312923	0.255150	0.177742	548.108154
10364.313861	0.249811	0.177742	782.430664
10364.314774	0.241461	0.177742	1002.884705
10364.315677	0.239583	0.177742	1219.227783
10364.316568	0.505836	0.177742	1669.927856
10364.317508	0.100133	0.177742	1764.052979
10364.318415	0.101144	0.177742	1855.790405
10364.319319	0.103271	0.177742	1949.147827
10364.320209	0.102594	0.177742	2040.456543
10364.321168	0.100378	0.177742	2136.719482
10364.322074	0.101499	0.177742	2228.677490
10364.322974	0.101451	0.177742	2319.983887
10364.323901	0.100364	0.177742	2413.020996
10364.324795	0.099998	0.177742	2502.418701
10364.325688	0.101982	0.177742	2593.489014
10365.325782	0.715261	0.197915	317.575989
10365.326682	0.255758	0.197915	547.758240
10365.327576	0.250455	0.197915	771.665283
10365.328556	0.241743	0.197915	1008.573608
10365.329463	0.239854	0.197915	1226.120728
10365.330363	0.511102	0.197915	1686.112793
10365.331296	0.100778	0.197915	1780.138306
10365.332202	0.102462	0.197915	1872.968994
10365.333106	0.102755	0.197915	1965.859619
10365.333998	0.103154	0.197915	2057.873291
10365.334935	0.100902	0.197915	2152.418457
10365.335831	0.103151	0.197915	2244.841309
10365.336755	0.102876	0.197915	2339.898682
10365.337647	0.101876	0.197915	2430.772217
10365.338599	0.100594	0.197915	2526.538086
10365.339501	0.101034	0.197915	2617.670654
10366.333390	0.701580	0.195768	311.501343
10366.334359	0.255861	0.195768	559.430298
10366.335275	0.249089	0.195768	787.596130
10366.336169	0.241520	0.195768	1003.514832
10366.337102	0.239681	0.195768	1227.137573
10366.338023	0.480813	0.195768	1669.966309
10366.338926	0.102440	0.195768	1762.469849
10366.339818	0.102535	0.195768	1853.931396
10366.340755	0.100807	0.195768	1948.387451
10366.341660	0.101323	0.195768	2040.084961
10366.342564	0.102590	0.195768	2132.826660
10366.343451	0.101224	0.195768	2222.612793
10366.344398	0.100074	0.195768	2317.383301
10366.345306	0.101107	0.195768	2409.188721
10366.346198	0.101891	0.195768	2500.075439
10366.347135	0.100858	0.195768	2594.579590
10367.365600	0.715386	0.190544	323.354340
10367.366492	0.255410	0.190544	551.180176
10367.367431	0.249745	0.190544	785.690613
10367.368357	0.241816	0.190544	1009.612610
10367.369264	0.240037	0.190544	1227.325806
10367.370167	0.508151	0.190544	1686.185791
10367.371126	0.100063	0.190544	1782.146729
10367.372038	0.102792	0.190544	1875.892822
10367.372943	0.103674	0.190544	1969.718018
10367.373837	0.100961	0.190544	2059.976807
10367.374787	0.100430	0.190544	2155.385010
10367.375687	0.101671	0.190544	2246.889160
10367.376576	0.101836	0.190544	2337.421387
10367.377507	0.100686	0.190544	2431.160156
10367.378417	0.100917	0.190544	2522.994385
10367.379314	0.101869	0.190544	2614.370850
10368.368095	0.673594	0.194939	303.117187
10368.368997	0.254945	0.194939	533.077637
10368.369892	0.249536	0.194939	756.412476
10368.370854	0.241494	0.194939	988.729858
10368.371779	0.239513	0.194939	1210.279297
10368.372683	0.486035	0.194939	1649.655029
10368.373616	0.100203	0.194939	1743.144043
10368.374520	0.100598	0.194939	1834.084717
10368.375422	0.102719	0.194939	1926.736816
10368.376310	0.101917	0.194939	2017.238647
10368.377256	0.100455	0.194939	2112.269287
10368.378157	0.101279	0.194939	2203.521973
10368.379059	0.101594	0.194939	2295.159912
10368.379958	0.100752	0.194939	2385.735840
10368.380902	0.099917	0.194939	2480.057373
10368.381809	0.100851	0.194939	2571.529053
10369.398229	0.702777	0.181158	315.546906
10369.399123	0.255791	0.181158	544.224060
10369.400070	0.250181	0.181158	781.145142
10369.400986	0.241926	0.181158	1002.749573
10369.401897	0.240051	0.181158	1221.436279
10369.402801	0.514526	0.181158	1686.568115
10369.403729	0.100283	0.181158	1779.630981
10369.404626	0.101418	0.181158	1870.603394
10369.405527	0.103385	0.181158	1963.753296
10369.406415	0.102283	0.181158	2054.580322
10369.407364	0.100389	0.181158	2149.849854
10369.408273	0.100924	0.181158	2241.589844
10369.409165	0.102722	0.181158	2333.218018
10369.410096	0.100613	0.181158	2426.888428
10369.411004	0.099840	0.181158	2517.543213
10369.411905	0.103110	0.181158	2610.445557
10370.409931	0.720037	0.203938	315.376038
10370.410825	0.255443	0.203938	543.742187
10370.411800	0.249880	0.203938	787.375549
10370.412734	0.241750	0.203938	1013.170532
10370.413629	0.239938	0.203938	1227.914795
10370.414589	0.485691	0.203938	1694.178101
10370.415489	0.101818	0.203938	1785.813965
10370.416406	0.102748	0.203938	1880.033691
10370.417294	0.104008	0.203938	1972.392456
10370.418228	0.101810	0.203938	2067.483398
10370.419139	0.101624	0.203938	2160.062500
10370.420037	0.103301	0.203938	2252.826660
10370.420974	0.101415	0.203938	2347.852295
10370.421887	0.102045	0.203938	2441.019043
10370.422803	0.102440	0.203938	2534.854248
10370.423693	0.101074	0.203938	2624.810303
10371.424725	0.691912	0.186406	310.668335
10371.425622	0.255432	0.186406	539.790955
10371.426564	0.249716	0.186406	775.023010
10371.427483	0.241472	0.186406	996.935913
10371.428386	0.239634	0.186406	1213.325195
10371.429290	0.515325	0.186406	1679.178711
10371.430223	0.099979	0.186406	1772.459351
10371.431125	0.101166	0.186406	1863.710937
10371.432032	0.104180	0.186406	1958.201904
10371.432920	0.102012	0.186406	2048.788330
10371.433863	0.100686	0.186406	2143.735352
10371.434776	0.101202	0.186406	2236.133057
10371.435670	0.103510	0.186406	2328.670654
10371.436601	0.101158	0.186406	2422.849121
10371.437506	0.100356	0.186406	2513.671631
10371.438409	0.102601	0.186406	2606.320557
10372.456957	0.718037	0.204421	351.838196
10372.457887	0.256212	0.204421	590.115540
10372.458794	0.249459	0.204421	816.375061
10372.459690	0.241846	0.204421	1033.068848
10372.460635	0.240011	0.204421	1259.879272
10372.461567	0.454871	0.204421	1683.818726
10372.462485	0.101869	0.204421	1777.334351
10372.463376	0.101836	0.204421	1868.070190
10372.464316	0.101382	0.204421	1963.369141
10372.465222	0.102491	0.204421	2056.226318
10372.466110	0.103718	0.204421	2148.328125
10372.467046	0.100631	0.204421	2242.518799
10372.467964	0.101682	0.204421	2335.863037
10372.468872	0.102279	0.204421	2428.732422
10372.469759	0.101924	0.204421	2519.138916
10372.470716	0.099965	0.204421	2614.804932
10373.452235	0.719670	0.199909	313.056610
10373.453197	0.255883	0.199909	559.215698
10373.454103	0.249829	0.199909	785.560852
10373.455012	0.241824	0.199909	1005.378662
10373.455909	0.240084	0.199909	1220.734253
10373.456876	0.500402	0.199909	1704.622559
10373.457787	0.100430	0.199909	1796.114014
10373.458688	0.104095	0.199909	1889.904053
10373.459612	0.101638	0.199909	1983.817749
10373.460516	0.100565	0.199909	2074.728760
10373.461420	0.102675	0.199909	2167.546631
10373.462313	0.102975	0.199909	2259.503174
10373.463251	0.099998	0.199909	2353.300781
10373.464152	0.100510	0.199909	2443.860596
10373.465055	0.102334	0.199909	2536.268066
10373.465946	0.102418	0.199909	2627.522705
10374.495689	0.721699	0.198624	313.939178
10374.496664	0.255787	0.198624	563.331848
10374.497575	0.249675	0.198624	790.786011
10374.498486	0.241827	0.198624	1011.090759
10374.499383	0.240051	0.198624	1226.416748
10374.500335	0.493528	0.198624	1696.255249
10374.501245	0.101785	0.198624	1788.879272
10374.502141	0.102847	0.198624	1881.029907
10374.503030	0.102389	0.198624	1972.053711
10374.503978	0.100957	0.198624	2067.760986
10374.504877	0.102477	0.198624	2159.887695
10374.505770	0.102902	0.198624	2251.778809
10374.506715	0.100682	0.198624	2346.923584
10374.507615	0.101052	0.198624	2437.870605
10374.508517	0.102656	0.198624	2530.466553
10374.509409	0.101766	0.198624	2621.242187
10375.486940	0.664702	0.186676	299.115967
10375.487869	0.255762	0.186676	536.718628
10375.488768	0.250096	0.186676	761.555298
10375.489703	0.241846	0.186676	987.681030
10375.490614	0.240077	0.186676	1206.391113
10375.491523	0.511154	0.186676	1671.029785
10375.492412	0.101158	0.186676	1760.959595
10375.493357	0.100939	0.186676	1856.346680
10375.494265	0.101371	0.186676	1948.391357
10375.495162	0.104213	0.186676	2041.870117
10375.496093	0.102056	0.186676	2136.884033
10375.496997	0.100225	0.186676	2227.487061
10375.497901	0.103359	0.186676	2320.923828
10375.498788	0.102931	0.186676	2412.223633
10375.499728	0.100254	0.186676	2506.462402
10375.500633	0.100657	0.186676	2597.556641
10376.530398	0.705645	0.185420	316.834412
10376.531308	0.255593	0.185420	549.424255
10376.532204	0.250492	0.185420	773.865051
10376.533159	0.241776	0.185420	1004.761230
10376.534072	0.239886	0.185420	1223.777588
10376.534980	0.510374	0.185420	1687.196777
10376.535915	0.100975	0.185420	1781.608765
10376.536830	0.101052	0.185420	1874.071533
10376.537736	0.103191	0.185420	1967.562500
10376.538635	0.103792	0.185420	2060.871094
10376.539581	0.101184	0.185420	2156.591309
10376.540480	0.100422	0.185420	2246.871094
10376.541376	0.101407	0.185420	2337.732178
10376.542262	0.101960	0.185420	2428.069092
10376.543204	0.100009	0.185420	2522.277100
10376.544111	0.100968	0.185420	2613.854980
10377.521647	0.702228	0.186427	331.451508
10377.522554	0.256014	0.186427	563.656555
10377.523449	0.250144	0.186427	787.535461
10377.524418	0.241769	0.186427	1021.809448
10377.525339	0.239897	0.186427	1242.755005
10377.526253	0.502357	0.186427	1701.909424
10377.527184	0.100529	0.186427	1795.501465
10377.528093	0.102466	0.186427	1888.642944
10377.529018	0.102528	0.186427	1983.481445
10377.529905	0.102345	0.186427	2074.261475
10377.530861	0.101448	0.186427	2171.245605
10377.531766	0.102931	0.186427	2264.398193
10377.532691	0.102740	0.186427	2359.433105
10377.533577	0.101964	0.186427	2449.773193
10377.534532	0.102502	0.186427	2547.663086
10377.535452	0.101689	0.186427	2641.217285
10378.570203	0.663929	0.174805	296.112518
10378.571113	0.255403	0.174805	528.529114
10378.572012	0.250203	0.174805	753.461304
10378.572974	0.241450	0.174805	985.736389
10378.573887	0.239509	0.174805	1204.408325
10378.574790	0.502841	0.174805	1658.473389
10378.575724	0.100887	0.174805	1752.702271
10378.576632	0.100763	0.174805	1844.195068
10378.577532	0.102294	0.174805	1936.259399
10378.578430	0.103652	0.174805	2029.339233
10378.579351	0.100430	0.174805	2121.834961
10378.580251	0.100411	0.174805	2212.205078
10378.581154	0.102440	0.174805	2304.708496
10378.582042	0.101268	0.174805	2394.634766
10378.582989	0.099913	0.174805	2489.252686
10378.583889	0.100613	0.174805	2579.804199
10379.556348	0.586545	0.196461	285.061066
10379.557266	0.255597	0.196461	519.699036
10379.558168	0.249320	0.196461	744.585754
10379.559061	0.241468	0.196461	960.217102
10379.560014	0.239601	0.196461	1188.556641
10379.560924	0.495568	0.196461	1639.523193
10379.561814	0.102898	0.196461	1731.102417
10379.562745	0.101459	0.196461	1825.560547
10379.563660	0.101067	0.196461	1918.036743
10379.564566	0.102880	0.196461	2011.245728
10379.565461	0.102616	0.196461	2103.086914
10379.566406	0.100188	0.196461	2197.764648
10379.567315	0.102499	0.196461	2290.936035
10379.568211	0.102144	0.196461	2382.456543
10379.569098	0.101543	0.196461	2472.525146
10379.570042	0.100038	0.196461	2566.960937
10380.606927	0.691721	0.175345	306.432465
10380.607834	0.255714	0.175345	538.365173
10380.608750	0.250375	0.175345	767.708435
10380.609703	0.241838	0.175345	998.180420
10380.610623	0.239945	0.175345	1218.929932
10380.611530	0.488793	0.175345	1662.264893
10380.612453	0.100056	0.175345	1754.616699
10380.613368	0.100847	0.175345	1846.891846
10380.614268	0.103253	0.175345	1939.819702
10380.615160	0.102946	0.175345	2031.647095
10380.616115	0.100415	0.175345	2127.543457
10380.617024	0.101147	0.175345	2219.486572
10380.617924	0.102125	0.175345	2311.399414
10380.618851	0.101272	0.175345	2405.278564
10380.619763	0.100210	0.175345	2496.670166
10380.620668	0.102448	0.175345	2589.385254
10381.593040	0.695303	0.199631	307.323822
10381.593944	0.254945	0.199631	537.794189
10381.594877	0.249404	0.199631	770.488403
10381.595784	0.241447	0.199631	989.480408
10381.596734	0.239663	0.199631	1217.160400
10381.597648	0.507026	0.199631	1680.582520
10381.598532	0.102283	0.199631	1771.000488
10381.599478	0.100928	0.199631	1866.478149
10381.600399	0.101678	0.199631	1960.124023
10381.601303	0.102019	0.199631	2052.349121
10381.602192	0.102144	0.199631	2143.154785
10381.603143	0.100463	0.199631	2238.694824
10381.604051	0.102184	0.199631	2331.477783
10381.604941	0.102975	0.199631	2423.125488
10381.605867	0.101140	0.199631	2516.781250
10381.606777	0.100759	0.199631	2608.472168
10382.643664	0.693105	0.177661	306.352600
10382.644567	0.255754	0.177661	537.298828
10382.645500	0.250151	0.177661	770.690063
10382.646409	0.241875	0.177661	990.554443
10382.647321	0.240033	0.177661	1209.464478
10382.648218	0.510172	0.177661	1667.088867
10382.649162	0.099939	0.177661	1761.431274
10382.650066	0.101667	0.177661	1853.338623
10382.650963	0.103619	0.177661	1946.285156
10382.651865	0.102151	0.177661	2038.425293
10382.652795	0.100748	0.177661	2132.121094
10382.653705	0.102975	0.177661	2225.828125
10382.654604	0.102426	0.177661	2317.908691
10382.655527	0.100972	0.177661	2411.105469
10382.656428	0.100206	0.177661	2501.391357
10382.657335	0.101642	0.177661	2593.580566
10383.628752	0.691062	0.200675	307.522583
10383.629727	0.256194	0.200675	557.311584
10383.630640	0.249272	0.200675	784.897339
10383.631537	0.241831	0.200675	1001.819824
10383.632475	0.239919	0.200675	1226.864258
10383.633404	0.501790	0.200675	1693.026733
10383.634309	0.102675	0.200675	1785.947266
10383.635207	0.102535	0.200675	1878.024048
10383.636168	0.100741	0.200675	1974.836182
10383.637078	0.103308	0.200675	2068.846680
10383.637971	0.103923	0.200675	2161.650146
10383.638869	0.102231	0.200675	2253.454102
10383.639816	0.100935	0.200675	2349.039551
10383.640721	0.102312	0.200675	2441.631836
10383.641610	0.102242	0.200675	2532.525391
10383.642546	0.100880	0.200675	2626.949219
10384.681422	0.715243	0.184533	316.852600
10384.682382	0.256260	0.184533	562.862000
10384.683308	0.249496	0.184533	793.895142
10384.684214	0.241758	0.184533	1012.927734
10384.685154	0.239890	0.184533	1238.424438
10384.686085	0.495425	0.184533	1699.664917
10384.686979	0.101730	0.184533	1790.611328
10384.687869	0.103733	0.184533	1882.933594
10384.688807	0.101038	0.184533	1977.706909
10384.689710	0.101294	0.184533	2069.175293
10384.690609	0.103107	0.184533	2161.868164
10384.691495	0.101741	0.184533	2252.010498
10384.692429	0.100430	0.184533	2345.811768
10384.693339	0.100953	0.184533	2437.679443
10384.694234	0.102480	0.184533	2529.399414
10384.695163	0.101587	0.184533	2623.773682
10385.665492	0.695991	0.191639	304.844147
10385.666407	0.256000	0.191639	539.083923
10385.667322	0.250411	0.191639	768.210327
10385.668226	0.242010	0.191639	986.987793
10385.669188	0.240011	0.191639	1217.878418
10385.670112	0.480754	0.191639	1662.095459
10385.671009	0.102770	0.191639	1754.279907
10385.671940	0.101283	0.191639	1848.574341
10385.672845	0.101147	0.191639	1940.112793
10385.673742	0.103066	0.191639	2032.563354
10385.674626	0.102268	0.191639	2122.968262
10385.675561	0.100510	0.191639	2216.945312
10385.676467	0.101147	0.191639	2308.584961
10385.677363	0.102847	0.191639	2400.735596
10385.678271	0.101104	0.191639	2492.537598
10385.679202	0.099921	0.191639	2585.563721
10386.717141	0.701254	0.186076	315.564178
10386.718037	0.255608	0.186076	544.588867
10386.719005	0.249609	0.186076	786.210754
10386.719936	0.241798	0.186076	1011.324768
10386.720835	0.240029	0.186076	1227.111084
10386.721791	0.503295	0.186076	1708.260864
10386.722698	0.100056	0.186076	1799.011841
10386.723599	0.103290	0.186076	1892.075928
10386.724485	0.102565	0.186076	1982.948242
10386.725445	0.100913	0.186076	2079.824707
10386.726354	0.101550	0.186076	2172.134033
10386.727245	0.102491	0.186076	2263.453857
10386.728151	0.101429	0.186076	2355.348877
10386.729082	0.100188	0.186076	2448.623779
10386.729991	0.102015	0.186076	2541.355713
10386.730883	0.103890	0.186076	2634.025879
10387.702240	0.679164	0.184344	304.944550
10387.703159	0.255879	0.184344	540.097290
10387.704063	0.249891	0.184344	765.999084
10387.704999	0.241809	0.184344	992.332397
10387.705919	0.240000	0.184344	1213.132324
10387.706827	0.515394	0.184344	1681.110352
10387.707719	0.101642	0.184344	1771.774902
10387.708683	0.101089	0.184344	1869.224609
10387.709583	0.101744	0.184344	1960.794556
10387.710475	0.104916	0.184344	2054.379395
10387.711378	0.102246	0.184344	2146.707520
10387.712301	0.100510	0.184344	2239.478516
10387.713201	0.102708	0.184344	2331.915283
10387.714094	0.102982	0.184344	2423.878418
10387.715024	0.100902	0.184344	2517.717285
10387.715928	0.099840	0.184344	2607.972656
10388.749796	0.673678	0.196042	307.870850
10388.750693	0.255414	0.196042	536.977051
10388.751631	0.249602	0.196042	771.103760
10388.752553	0.241454	0.196042	993.724243
10388.753464	0.239480	0.196042	1211.890503
10388.754368	0.478286	0.196042	1644.261230
10388.755321	0.100060	0.196042	1739.618286
10388.756233	0.102180	0.196042	1832.806641
10388.757135	0.103396	0.196042	1926.069824
10388.758055	0.102532	0.196042	2020.399048
10388.758965	0.100847	0.196042	2112.169922
10388.759873	0.102191	0.196042	2204.959473
10388.760770	0.102872	0.196042	2297.235840
10388.761704	0.100254	0.196042	2390.873047
10388.762614	0.100371	0.196042	2482.210693
10388.763520	0.103022	0.196042	2575.549072
10389.741002	0.704747	0.183651	308.679321
10389.741975	0.256128	0.183651	557.891785
10389.742895	0.249445	0.183651	787.380798
10389.743789	0.241772	0.183651	1003.525391
10389.744731	0.239956	0.183651	1229.563965
10389.745655	0.498801	0.183651	1690.456299
10389.746549	0.103466	0.183651	1782.954590
10389.747441	0.102968	0.183651	1874.801636
10389.748388	0.100770	0.183651	1970.231079
10389.749295	0.100986	0.183651	2061.825684
10389.750199	0.102341	0.183651	2154.342285
10389.751084	0.102111	0.183651	2244.710205
10389.752027	0.099979	0.183651	2338.990723
10389.752938	0.101605	0.183651	2431.552979
10389.753825	0.102913	0.183651	2522.836426
10389.754757	0.100323	0.183651	2616.337891
10390.782425	0.687374	0.203305	307.256287
10390.783327	0.255626	0.203305	537.831177
10390.784218	0.250173	0.203305	760.735657
10390.785173	0.241882	0.203305	991.733276
10390.786091	0.239934	0.203305	1211.992798
10390.787004	0.505214	0.203305	1673.252808
10390.787941	0.099906	0.203305	1766.864746
10390.788848	0.100565	0.203305	1858.077393
10390.789753	0.102843	0.203305	1951.150269
10390.790642	0.102590	0.203305	2042.353027
10390.791596	0.100719	0.203305	2138.438965
10390.792499	0.101100	0.203305	2229.732178
10390.793395	0.102400	0.203305	2321.482422
10390.794280	0.101920	0.203305	2411.681885
10390.795214	0.100173	0.203305	2505.243896
10390.796123	0.101887	0.203305	2597.859375
10391.779807	0.691040	0.188102	310.968018
10391.780707	0.255963	0.188102	541.334839
10391.781648	0.250250	0.188102	776.820312
10391.782564	0.241886	0.188102	998.387878
10391.783468	0.240077	0.188102	1215.417358
10391.784367	0.515288	0.188102	1678.661377
10391.785308	0.099763	0.188102	1772.538574
10391.786223	0.102524	0.188102	1866.348389
10391.787122	0.103623	0.188102	1959.505493
10391.788016	0.101620	0.188102	2050.353760
10391.788967	0.100752	0.188102	2146.168945
10391.789869	0.103484	0.188102	2239.511475
10391.790755	0.102301	0.188102	2330.150146
10391.791695	0.101591	0.188102	2425.645264
10391.792606	0.101528	0.188102	2518.137451
10391.793504	0.102968	0.188102	2610.602295
10392.813007	0.720374	0.205533	316.964386
10392.813899	0.255531	0.205533	544.898010
10392.814867	0.249972	0.205533	786.870850
10392.815776	0.241824	0.205533	1006.688599
10392.816678	0.240048	0.205533	1223.211548
10392.817617	0.499124	0.205533	1691.888550
10392.818536	0.099818	0.205533	1783.621338
10392.819442	0.103213	0.205533	1877.132202
10392.820340	0.103418	0.205533	1970.001587
10392.821283	0.100653	0.205533	2064.917480
10392.822186	0.100507	0.205533	2155.674805
10392.823089	0.103264	0.205533	2248.922363
10392.823977	0.101301	0.205533	2338.877930
10392.824916	0.100243	0.205533	2433.006104
10392.825820	0.101202	0.205533	2524.493164
10392.826713	0.101931	0.205533	2615.517578
10393.825747	0.698518	0.175115	310.840515
10393.826652	0.255985	0.175115	542.507019
10393.827597	0.250327	0.175115	779.066162
10393.828515	0.241835	0.175115	1001.070435
10393.829426	0.240070	0.175115	1219.773804
10393.830333	0.512384	0.175115	1684.506104
10393.831273	0.100349	0.175115	1778.834229
10393.832170	0.101334	0.175115	1869.731079
10393.833071	0.104062	0.175115	1963.491333
10393.833954	0.102437	0.175115	2053.942871
10393.834889	0.100466	0.175115	2147.878906
10393.835798	0.101115	0.175115	2239.791992
10393.836699	0.102136	0.175115	2331.816650
10393.837633	0.100840	0.175115	2426.000977
10393.838540	0.099954	0.175115	2516.658936
10393.839439	0.101660	0.175115	2608.051514
10394.842583	0.678391	0.200232	304.597626
10394.843476	0.255018	0.200232	532.328979
10394.844419	0.249430	0.200232	767.541382
10394.845335	0.241520	0.200232	988.773499
10394.846234	0.239678	0.200232	1204.243774
10394.847140	0.426262	0.200232	1590.437256
10394.848091	0.100071	0.200232	1685.604614
10394.849000	0.101865	0.200232	1778.200073
10394.849901	0.104418	0.200232	1872.280396
10394.850835	0.101671	0.200232	1967.241211
10394.851732	0.100488	0.200232	2057.379150
10394.852627	0.102085	0.200232	2148.745117
10394.853515	0.102990	0.200232	2240.199707
10394.854467	0.099884	0.200232	2335.289307
10394.855362	0.100323	0.200232	2425.078857
10394.856261	0.102689	0.200232	2517.396484
10395.869639	0.714419	0.172803	311.486664
10395.870533	0.255428	0.172803	539.839722
10395.871515	0.249426	0.172803	784.776306
10395.872433	0.241776	0.172803	1006.726807
10395.873341	0.240007	0.172803	1224.653442
10395.874289	0.498911	0.172803	1697.621216
10395.875198	0.100316	0.172803	1788.808594
10395.876106	0.103418	0.172803	1882.712158
10395.876997	0.102067	0.172803	1973.653564
10395.877950	0.100789	0.172803	2069.705078
10395.878859	0.102319	0.172803	2162.713379
10395.879752	0.104579	0.172803	2256.102295
10395.880675	0.101470	0.172803	2349.758789
10395.881588	0.100334	0.172803	2441.364258
10395.882497	0.102609	0.172803	2534.635498
10395.883396	0.102257	0.172803	2626.564697
10396.872156	0.687546	0.193041	311.458527
10396.873054	0.255388	0.193041	540.797119
10396.874014	0.249624	0.193041	780.436157
10396.874913	0.241505	0.193041	997.549255
10396.875828	0.239630	0.193041	1216.810791
10396.876753	0.496956	0.193041	1676.494629
10396.877649	0.102074	0.193041	1767.952881
10396.878579	0.102828	0.193041	1863.583252
10396.879507	0.102144	0.193041	1958.372437
10396.880434	0.102484	0.193041	2053.375244
10396.881328	0.102279	0.193041	2144.812744
10396.882275	0.101294	0.193041	2240.738037
10396.883174	0.101525	0.193041	2332.008789
10396.884097	0.101884	0.193041	2426.047363
10396.884984	0.101437	0.193041	2516.021729
10396.885922	0.101880	0.193041	2611.584961
10397.903316	0.714796	0.190213	318.799072
10397.904263	0.255513	0.190213	560.769592
10397.905175	0.249280	0.190213	788.112793
10397.906086	0.241450	0.190213	1008.073914
10397.906987	0.239692	0.190213	1224.036743
10397.907949	0.503214	0.190213	1708.128662
10397.908854	0.101858	0.190213	1800.310059
10397.909752	0.103341	0.190213	1893.110352
10397.910693	0.101389	0.190213	1988.517578
10397.911593	0.101030	0.190213	2079.444824
10397.912489	0.102993	0.190213	2171.726807
10397.913379	0.103187	0.190213	2263.563477
10397.914316	0.100448	0.190213	2357.683350
10397.915221	0.101400	0.190213	2449.450439
10397.916126	0.102990	0.190213	2542.656006
10397.917037	0.101250	0.190213	2634.894775
10398.906828	0.700704	0.197799	309.711304
10398.907728	0.255432	0.197799	539.600220
10398.908706	0.249327	0.197799	783.442383
10398.909608	0.241842	0.197799	1001.583923
10398.910499	0.240066	0.197799	1215.482666
10398.911458	0.454662	0.197799	1651.503418
10398.912364	0.102828	0.197799	1744.665894
10398.913282	0.102404	0.197799	1838.672363
10398.914180	0.103389	0.197799	1931.515381
10398.915141	0.102096	0.197799	2029.629639
10398.916048	0.103008	0.197799	2123.057617
10398.916940	0.103440	0.197799	2215.325928
10398.917866	0.101990	0.197799	2309.768555
10398.918787	0.101342	0.197799	2403.104004
10398.919684	0.102173	0.197799	2494.752930
10398.920570	0.102861	0.197799	2585.888184
10399.932873	0.715012	0.208163	314.605377
10399.933854	0.255967	0.208163	565.708801
10399.934772	0.249082	0.208163	794.366089
10399.935684	0.241761	0.208163	1014.852539
10399.936578	0.240114	0.208163	1229.514038
10399.937552	0.503372	0.208163	1719.797974
10399.938451	0.101616	0.208163	1811.151001
10399.939352	0.102935	0.208163	1903.895020
10399.940272	0.101514	0.208163	1997.287598
10399.941170	0.100547	0.208163	2087.578613
10399.942079	0.102795	0.208163	2181.019531
10399.942972	0.102092	0.208163	2272.187988
10399.943896	0.100280	0.208163	2364.846191
10399.944799	0.100653	0.208163	2455.735840
10399.945706	0.102876	0.208163	2549.044434
10399.946595	0.102228	0.208163	2639.925049
10400.952775	0.714609	0.191361	312.284271
10400.953670	0.255410	0.191361	540.876343
10400.954664	0.249269	0.191361	788.649536
10400.955576	0.241699	0.191361	1009.079224
10400.956477	0.239945	0.191361	1225.269775
10400.957445	0.491971	0.191361	1701.498047
10400.958350	0.101243	0.191361	1793.122681
10400.959245	0.103187	0.191361	1885.475220
10400.960133	0.102360	0.191361	1976.370605
10400.961063	0.100671	0.191361	2069.995117
10400.961972	0.101477	0.191361	2162.237793
10400.962882	0.103015	0.191361	2255.981445
10400.963776	0.101591	0.191361	2346.803467
10400.964728	0.100851	0.191361	2442.813477
10400.965634	0.102122	0.191361	2535.335693
10400.966525	0.102451	0.191361	2626.619629
10401.957338	0.673407	0.211898	299.666138
10401.958259	0.255806	0.211898	535.263184
10401.959168	0.249807	0.211898	762.337891
10401.960112	0.241849	0.211898	990.643677
10401.961028	0.240051	0.211898	1210.530640
10401.961935	0.501804	0.211898	1665.666992
10401.962824	0.103180	0.211898	1757.393921
10401.963778	0.100836	0.211898	1853.591675
10401.964684	0.101158	0.211898	1945.241211
10401.965588	0.103821	0.211898	2039.095215
10401.966475	0.102993	0.211898	2130.450195
10401.967412	0.100507	0.211898	2224.624756
10401.968326	0.101990	0.211898	2317.843262
10401.969222	0.102806	0.211898	2409.957764
10401.970153	0.100668	0.211898	2503.679443
10401.971063	0.099760	0.211898	2594.460693
10402.999758	0.715393	0.180271	314.057556
10403.000715	0.256036	0.180271	559.084351
10403.001633	0.249390	0.180271	788.024048
10403.002545	0.241776	0.180271	1008.523865
10403.003474	0.240007	0.180271	1231.490723
10403.004400	0.497900	0.180271	1692.546509
10403.005300	0.102235	0.180271	1784.558105
10403.006188	0.102286	0.180271	1875.388428
10403.007131	0.100712	0.180271	1970.359497
10403.008030	0.101290	0.180271	2061.419434
10403.008923	0.102162	0.180271	2152.649902
10403.009814	0.101364	0.180271	2242.964844
10403.010768	0.100082	0.180271	2338.442871
10403.011678	0.102129	0.180271	2431.380127
10403.012576	0.102850	0.180271	2523.739746
10403.013499	0.100653	0.180271	2616.642578
10403.985867	0.728687	0.202330	316.249939
10403.986819	0.255374	0.202330	559.365540
10403.987736	0.249258	0.202330	787.934937
10403.988646	0.241516	0.202330	1007.714600
10403.989543	0.239670	0.202330	1222.698975
10403.990515	0.501324	0.202330	1709.986328
10403.991418	0.100441	0.202330	1800.684204
10403.992313	0.102909	0.202330	1892.787720
10403.993250	0.101521	0.202330	1987.912842
10403.994139	0.100562	0.202330	2077.312012
10403.995044	0.102371	0.202330	2169.957520
10403.995941	0.103004	0.202330	2262.352295
10403.996885	0.100404	0.202330	2357.133789
10403.997791	0.100686	0.202330	2448.355225
10403.998696	0.103195	0.202330	2541.746338
10403.999583	0.101605	0.202330	2631.870117
10405.038539	0.723772	0.192799	317.012146
10405.039431	0.255289	0.192799	544.730225
10405.040384	0.249598	0.192799	782.597473
10405.041309	0.241564	0.192799	1006.043945
10405.042210	0.239736	0.192799	1222.046387
10405.043166	0.506613	0.192799	1706.367920
10405.044072	0.099847	0.192799	1796.829712
10405.044970	0.102352	0.192799	1888.742065
10405.045859	0.103085	0.192799	1980.384399
10405.046813	0.100748	0.192799	2076.498291
10405.047715	0.100869	0.192799	2167.482178
10405.048615	0.102935	0.192799	2260.123291
10405.049500	0.101682	0.192799	2350.112061
10405.050436	0.100258	0.192799	2443.953125
10405.051345	0.100759	0.192799	2535.543213
10405.052243	0.102773	0.192799	2627.833740
10406.021577	0.714412	0.194810	312.912292
10406.022475	0.255106	0.194810	541.997681
10406.023429	0.249335	0.194810	779.862976
10406.024347	0.241461	0.194810	1001.524353
10406.025257	0.239476	0.194810	1219.447754
10406.026164	0.461697	0.194810	1638.206787
10406.027117	0.099771	0.194810	1733.288086
10406.028027	0.101960	0.194810	1826.072144
10406.028921	0.103345	0.194810	1918.462280
10406.029856	0.100807	0.194810	2012.716675
10406.030761	0.100349	0.194810	2103.532715
10406.031651	0.102572	0.194810	2194.821777
10406.032540	0.101715	0.194810	2285.246582
10406.033472	0.100280	0.194810	2378.707031
10406.034377	0.100975	0.194810	2470.089600
10406.035287	0.102788	0.194810	2563.626709
10407.068110	0.718975	0.210238	315.629852
10407.069002	0.255513	0.210238	543.547180
10407.069963	0.249584	0.210238	783.397156
10407.070880	0.242080	0.210238	1005.384583
10407.071792	0.240253	0.210238	1224.494995
10407.072692	0.435428	0.210238	1616.380615
10407.073651	0.099990	0.210238	1712.271240
10407.074560	0.102151	0.210238	1805.126343
10407.075459	0.103828	0.210238	1898.467773
10407.076402	0.101104	0.210238	1993.808350
10407.077300	0.100203	0.210238	2083.790283
10407.078201	0.104594	0.210238	2178.029053
10407.079087	0.102664	0.210238	2268.989014
10407.080020	0.100118	0.210238	2362.399414
10407.080925	0.100499	0.210238	2453.351318
10407.081826	0.103378	0.210238	2546.494629
10408.062415	0.733652	0.196562	325.007996
10408.063307	0.255399	0.196562	552.824036
10408.064291	0.249554	0.196562	798.385620
10408.065197	0.241604	0.196562	1017.278870
10408.066092	0.239861	0.196562	1231.954346
10408.067049	0.507832	0.196562	1717.949585
10408.067959	0.104293	0.196562	1812.856445
10408.068890	0.102806	0.196562	1908.569214
10408.069778	0.104066	0.196562	2000.979980
10408.070747	0.100924	0.196562	2098.775391
10408.071657	0.103198	0.196562	2192.685791
10408.072578	0.102762	0.196562	2287.330078
10408.073464	0.101536	0.196562	2377.290771
10408.074411	0.100898	0.196562	2472.841553
10408.075304	0.101429	0.196562	2563.417969
10408.076194	0.102198	0.196562	2654.374512
10409.098699	0.714294	0.215008	311.432373
10409.099643	0.255798	0.215008	552.906006
10409.100560	0.249598	0.215008	781.787720
10409.101467	0.241868	0.215008	1001.161682
10409.102362	0.240051	0.215008	1216.007568
10409.103329	0.503258	0.215008	1702.658081
10409.104235	0.101609	0.215008	1794.715698
10409.105138	0.103821	0.215008	1888.465820
10409.106071	0.101360	0.215008	1983.034546
10409.106969	0.100734	0.215008	2073.493408
10409.107865	0.103883	0.215008	2166.572754
10409.108751	0.101525	0.215008	2256.523682
10409.109672	0.099972	0.215008	2348.597900
10409.110577	0.100144	0.215008	2439.228271
10409.111482	0.101331	0.215008	2530.932373
10409.112373	0.100792	0.215008	2620.738281
10410.104278	0.706425	0.199378	316.478180
10410.105174	0.255275	0.199378	545.204285
10410.106130	0.249716	0.199378	783.932373
10410.107040	0.241578	0.199378	1003.768677
10410.107943	0.239751	0.199378	1220.263794
10410.108834	0.508147	0.199378	1673.022705
10410.109778	0.099910	0.199378	1767.337402
10410.110683	0.101433	0.199378	1859.134399
10410.111580	0.103792	0.199378	1952.235352
10410.112497	0.101195	0.199378	2045.031250
10410.113435	0.100411	0.199378	2139.217041
10410.114343	0.101404	0.199378	2231.291748
10410.115243	0.102081	0.199378	2323.165039
10410.116175	0.100745	0.199378	2417.059082
10410.117079	0.100426	0.199378	2507.844238
10410.117975	0.102070	0.199378	2599.299316
10411.128265	0.719905	0.214190	313.158569
10411.129217	0.255264	0.214190	556.169556
10411.130126	0.249320	0.214190	782.801514
10411.131039	0.241681	0.214190	1003.456177
10411.131939	0.239890	0.214190	1219.357300
10411.132900	0.501665	0.214190	1701.457397
10411.133805	0.100931	0.214190	1792.800293
10411.134704	0.104575	0.214190	1886.813354
10411.135593	0.102191	0.214190	1977.661255
10411.136544	0.100748	0.214190	2073.472900
10411.137454	0.103140	0.214190	2167.330078
10411.138349	0.102667	0.214190	2259.217285
10411.139297	0.101071	0.214190	2355.032227
10411.140193	0.099998	0.214190	2444.630127
10411.141093	0.102429	0.214190	2536.816406
10411.141982	0.101979	0.214190	2627.475586
10412.147163	0.687616	0.179635	311.490051
10412.148067	0.255505	0.179635	542.466919
10412.148984	0.249983	0.179635	771.701233
10412.149912	0.241721	0.179635	996.018494
10412.150824	0.239938	0.179635	1214.841675
10412.151727	0.511890	0.179635	1677.078003
10412.152671	0.100309	0.179635	1771.769531
10412.153571	0.101290	0.179635	1862.930786
10412.154462	0.103477	0.179635	1955.128418
10412.155350	0.102363	0.179635	2046.026978
10412.156284	0.100781	0.179635	2140.156738
10412.157193	0.101265	0.179635	2232.206299
10412.158092	0.102275	0.179635	2324.151855
10412.159014	0.100887	0.179635	2417.170166
10412.159912	0.099906	0.179635	2506.885742
10412.160820	0.102740	0.179635	2600.174072
10413.158905	0.720198	0.205541	350.016144
10413.159832	0.255535	0.205541	586.896790
10413.160743	0.248807	0.205541	813.560303
10413.161647	0.241370	0.205541	1031.758423
10413.162587	0.239480	0.205541	1256.869629
10413.163518	0.502954	0.205541	1725.119873
10413.164418	0.102206	0.205541	1817.105103
10413.165305	0.101792	0.205541	1907.394653
10413.166262	0.100730	0.205541	2003.793213
10413.167168	0.102063	0.205541	2096.262207
10413.168059	0.104176	0.205541	2189.083008
10413.168994	0.102037	0.205541	2284.488037
10413.169894	0.100265	0.205541	2374.726562
10413.170797	0.102817	0.205541	2467.570557
10413.171692	0.102968	0.205541	2559.726562
10413.172621	0.100287	0.205541	2652.893066
10414.186965	0.687312	0.173310	308.603088
10414.187863	0.255641	0.173310	538.168579
10414.188798	0.250115	0.173310	772.025879
10414.189731	0.241886	0.173310	997.705505
10414.190649	0.240066	0.173310	1218.086060
10414.191558	0.509993	0.173310	1681.669434
10414.192499	0.100276	0.173310	1776.029053
10414.193396	0.101155	0.173310	1866.764893
10414.194295	0.103129	0.173310	1959.477539
10414.195182	0.102202	0.173310	2050.130859
10414.196129	0.100382	0.173310	2145.192627
10414.197022	0.101744	0.173310	2236.050293
10414.197918	0.102455	0.173310	2327.849854
10414.198842	0.100876	0.173310	2421.059814
10414.199753	0.099921	0.173310	2512.087646
10414.200660	0.101477	0.173310	2604.127441
10415.193567	0.679127	0.198028	306.286377
10415.194466	0.255648	0.198028	536.114136
10415.195395	0.250243	0.198028	768.589844
10415.196307	0.241963	0.198028	989.260010
10415.197228	0.239993	0.198028	1210.293213
10415.198138	0.499387	0.198028	1664.735596
10415.199083	0.099906	0.198028	1759.146729
10415.199994	0.101071	0.198028	1851.222046
10415.200896	0.103132	0.198028	1944.247437
10415.201788	0.102689	0.198028	2035.846191
10415.202729	0.100532	0.198028	2130.447021
10415.203639	0.102235	0.198028	2223.480957
10415.204533	0.102612	0.198028	2315.216309
10415.205477	0.101041	0.198028	2410.599365
10415.206381	0.100144	0.198028	2501.129639
10415.207272	0.102766	0.198028	2592.694336
10416.224716	0.714478	0.178390	312.941162
10416.225665	0.255454	0.178390	555.367065
10416.226579	0.249305	0.178390	783.232239
10416.227492	0.241534	0.178390	1003.753174
10416.228391	0.239608	0.178390	1219.160889
10416.229358	0.506503	0.178390	1708.948975
10416.230261	0.100953	0.178390	1800.109863
10416.231159	0.103744	0.178390	1893.271851
10416.232091	0.101561	0.178390	1987.927002
10416.232989	0.100602	0.178390	2078.267334
10416.233887	0.103228	0.178390	2170.965576
10416.234777	0.102953	0.178390	2262.593750
10416.235725	0.100367	0.178390	2357.742187
10416.236627	0.101118	0.178390	2448.950684
10416.237524	0.102642	0.178390	2541.020264
10416.238411	0.101199	0.178390	2630.783447
10417.228234	0.702898	0.198503	309.977997
10417.229203	0.255857	0.198503	557.903381
10417.230114	0.249459	0.198503	785.160767
10417.231024	0.241783	0.198503	1005.183716
10417.231918	0.239978	0.198503	1219.724121
10417.232871	0.467124	0.198503	1664.893311
10417.233774	0.102012	0.198503	1757.009888
10417.234665	0.103341	0.198503	1849.086792
10417.235593	0.101748	0.198503	1943.509033
10417.236529	0.101140	0.198503	2038.176147
10417.237435	0.103202	0.198503	2131.677002
10417.238322	0.101356	0.198503	2221.579834
10417.239277	0.101049	0.198503	2318.081299
10417.240187	0.101180	0.198503	2410.155518
10417.241091	0.103165	0.198503	2503.416992
10417.241976	0.102136	0.198503	2593.807617
10418.257358	0.711193	0.186273	315.769531
10418.258249	0.254905	0.186273	542.889709
10418.259219	0.249067	0.186273	784.485046
10418.260142	0.241439	0.186273	1007.333435
10418.261043	0.239550	0.186273	1223.167603
10418.261999	0.497651	0.186273	1698.922363
10418.262904	0.100023	0.186273	1789.443359
10418.263803	0.102759	0.186273	1881.823486
10418.264692	0.102158	0.186273	1972.642090
10418.265640	0.100613	0.186273	2068.022949
10418.266548	0.102264	0.186273	2160.878906
10418.267441	0.102231	0.186273	2252.171631
10418.268361	0.101074	0.186273	2345.159912
10418.269277	0.100020	0.186273	2436.777832
10418.270192	0.102708	0.186273	2530.755127
10418.271084	0.102396	0.186273	2622.092529
10419.262923	0.705227	0.202508	307.478973
10419.263825	0.255659	0.202508	538.083557
10419.264720	0.250562	0.202508	762.336121
10419.265691	0.241875	0.202508	997.196716
10419.266605	0.239985	0.202508	1216.543335
10419.267506	0.501119	0.202508	1668.051880
10419.268436	0.100272	0.202508	1761.305054
10419.269349	0.100704	0.202508	1853.248169
10419.270247	0.103319	0.202508	1946.028687
10419.271139	0.102561	0.202508	2037.513184
10419.272072	0.100521	0.202508	2131.299561
10419.272977	0.100898	0.202508	2222.612549
10419.273882	0.102473	0.202508	2315.350830
10419.274770	0.101085	0.202508	2405.114502
10419.275716	0.100228	0.202508	2499.930420
10419.276628	0.101810	0.202508	2592.781494
10420.291024	0.714811	0.192578	318.090790
10420.291919	0.255421	0.192578	546.692688
10420.292899	0.249412	0.192578	791.116089
10420.293802	0.241663	0.192578	1009.337402
10420.294729	0.239813	0.192578	1231.644287
10420.295648	0.401268	0.192578	1600.409912
10420.296600	0.101653	0.192578	1697.183350
10420.297504	0.101935	0.192578	1789.332397
10420.298394	0.103239	0.192578	1881.214722
10420.299332	0.100474	0.192578	1975.458984
10420.300243	0.102572	0.192578	2068.902100
10420.301158	0.103583	0.192578	2163.680420
10420.302047	0.101766	0.192578	2254.150635
10420.303004	0.101444	0.192578	2351.232666
10420.303897	0.101587	0.192578	2441.949707
10420.304790	0.102305	0.192578	2533.307861
10421.297610	0.728811	0.206890	319.219238
10421.298578	0.256241	0.206890	567.260986
10421.299493	0.249573	0.206890	795.620056
10421.300402	0.241721	0.206890	1015.344604
10421.301301	0.239967	0.206890	1231.074951
10421.302269	0.499230	0.206890	1714.329346
10421.303179	0.100990	0.206890	1806.230225
10421.304068	0.103370	0.206890	1898.126465
10421.304996	0.101375	0.206890	1992.202026
10421.305899	0.100573	0.206890	2083.019043
10421.306804	0.103916	0.206890	2177.062988
10421.307698	0.102305	0.206890	2268.523437
10421.308649	0.100280	0.206890	2363.889160
10421.309546	0.101763	0.206890	2455.170410
10421.310445	0.101873	0.206890	2546.753906
10421.311359	0.101770	0.206890	2639.771729
10422.325723	0.676904	0.196493	299.868591
10422.326626	0.255311	0.196493	530.414673
10422.327520	0.250206	0.196493	754.099121
10422.328474	0.241860	0.196493	984.833862
10422.329387	0.240026	0.196493	1203.977295
10422.330295	0.516105	0.196493	1672.600342
10422.331184	0.102587	0.196493	1763.799927
10422.332139	0.100818	0.196493	1860.080933
10422.333049	0.101558	0.196493	1952.498413
10422.333948	0.102916	0.196493	2045.020142
10422.334880	0.100876	0.196493	2139.037109
10422.335783	0.100096	0.196493	2229.424072
10422.336685	0.102253	0.196493	2321.656738
10422.337573	0.102180	0.196493	2412.392822
10422.338520	0.100078	0.196493	2507.166748
10422.339419	0.100668	0.196493	2597.666992
10423.331273	0.728448	0.211990	316.875061
10423.332228	0.255172	0.211990	560.564453
10423.333140	0.249261	0.211990	787.890930
10423.334070	0.241494	0.211990	1012.480469
10423.334976	0.239696	0.211990	1229.645020
10423.335950	0.484230	0.211990	1701.284790
10423.336852	0.102239	0.211990	1793.504150
10423.337772	0.104260	0.211990	1889.423584
10423.338661	0.102389	0.211990	1980.447266
10423.339605	0.101847	0.211990	2076.590820
10423.340509	0.103074	0.211990	2169.769531
10423.341399	0.102909	0.211990	2261.358398
10423.342339	0.100591	0.211990	2355.913818
10423.343252	0.101755	0.211990	2448.816406
10423.344167	0.101832	0.211990	2541.992920
10423.345056	0.101547	0.211990	2632.267822
10424.358357	0.682716	0.197484	303.125946
10424.359280	0.255615	0.197484	539.058838
10424.360183	0.250020	0.197484	764.826477
10424.361113	0.241853	0.197484	989.749756
10424.362035	0.239993	0.197484	1211.022949
10424.362957	0.507773	0.197484	1679.190063
10424.363846	0.101993	0.197484	1769.862183
10424.364779	0.100887	0.197484	1863.990234
10424.365677	0.100975	0.197484	1954.666138
10424.366580	0.102012	0.197484	2046.782715
10424.367469	0.102231	0.197484	2137.666504
10424.368420	0.100159	0.197484	2232.917480
10424.369322	0.100781	0.197484	2323.822266
10424.370219	0.103392	0.197484	2416.565186
10424.371140	0.100723	0.197484	2509.330811
10424.372048	0.099851	0.197484	2599.995605
10425.365977	0.692336	0.217276	310.166687
10425.366880	0.255553	0.217276	540.931030
10425.367838	0.249554	0.217276	780.004150
10425.368755	0.241593	0.217276	1001.544922
10425.369658	0.239725	0.217276	1218.016846
10425.370560	0.509513	0.217276	1677.597412
10425.371511	0.099979	0.217276	1772.677734
10425.372417	0.101202	0.217276	1864.367065
10425.373312	0.103217	0.217276	1956.745850
10425.374198	0.101770	0.217276	2046.914062
10425.375134	0.100551	0.217276	2141.029297
10425.376049	0.102418	0.217276	2234.741943
10425.376946	0.103568	0.217276	2327.642578
10425.377879	0.100715	0.217276	2421.609863
10425.378787	0.100133	0.217276	2512.530762
10425.379688	0.103173	0.217276	2605.489258
10426.392015	0.704070	0.199047	310.494812
10426.392915	0.255472	0.199047	540.419983
10426.393809	0.250448	0.199047	764.320496
10426.394771	0.241879	0.199047	997.007751
10426.395681	0.240026	0.199047	1215.431030
10426.396597	0.508539	0.199047	1681.252563
10426.397483	0.101122	0.199047	1770.846558
10426.398434	0.100737	0.199047	1866.647705
10426.399341	0.101613	0.199047	1958.810303
10426.400241	0.103539	0.199047	2051.995117
10426.401179	0.101001	0.199047	2146.734131
10426.402087	0.100653	0.199047	2238.127197
10426.402988	0.102426	0.199047	2330.412598
10426.403879	0.102063	0.199047	2421.350830
10426.404821	0.099840	0.199047	2515.400146
10426.405728	0.101191	0.199047	2607.180664
10427.404774	0.673293	0.222182	307.021820
10427.405691	0.255820	0.222182	541.609009
10427.406597	0.249844	0.222182	767.967468
10427.407538	0.241985	0.222182	995.675232
10427.408454	0.240033	0.222182	1215.545410
10427.409376	0.497516	0.222182	1674.255005
10427.410273	0.102166	0.222182	1765.897461
10427.411216	0.100953	0.222182	1861.096436
10427.412118	0.101228	0.222182	1952.404053
10427.413018	0.103345	0.222182	2045.414307
10427.413908	0.101631	0.222182	2135.865723
10427.414849	0.100309	0.222182	2230.256348
10427.415747	0.100972	0.222182	2320.928955
10427.416643	0.102847	0.222182	2413.079590
10427.417573	0.100869	0.222182	2506.887939
10427.418481	0.099690	0.222182	2597.406494
10428.424649	0.715327	0.203668	313.313293
10428.425629	0.256040	0.203668	564.232544
10428.426534	0.249269	0.203668	789.820801
10428.427426	0.241725	0.203668	1005.439331
10428.428366	0.239949	0.203668	1230.991089
10428.429285	0.468120	0.203668	1661.193481
10428.430217	0.102623	0.203668	1756.838379
10428.431109	0.103191	0.203668	1848.884644
10428.432042	0.101049	0.203668	1943.162964
10428.432949	0.102052	0.203668	2035.724121
10428.433866	0.102920	0.203668	2130.101807
10428.434762	0.101715	0.203668	2221.238525
10428.435718	0.101082	0.203668	2317.872559
10428.436619	0.101254	0.203668	2409.102051
10428.437511	0.101935	0.203668	2500.027832
10428.438450	0.100239	0.203668	2594.152588
10429.446597	0.719462	0.222250	312.246368
10429.447571	0.255527	0.222250	561.130005
10429.448477	0.249327	0.222250	787.020630
10429.449381	0.241674	0.222250	1005.493530
10429.450273	0.239886	0.222250	1219.472290
10429.451233	0.482988	0.222250	1683.141113
10429.452139	0.100701	0.222250	1774.375977
10429.453038	0.103967	0.222250	1867.842529
10429.453967	0.101484	0.222250	1962.121460
10429.454878	0.100529	0.222250	2053.702881
10429.455786	0.101210	0.222250	2145.601318
10429.456680	0.102869	0.222250	2237.565918
10429.457622	0.100280	0.222250	2332.029297
10429.458524	0.100426	0.222250	2422.613525
10429.459425	0.103158	0.222250	2515.558838
10429.460309	0.101792	0.222250	2605.542969
10430.455252	0.695522	0.205569	306.725403
10430.456155	0.255220	0.205569	537.188843
10430.457051	0.250133	0.205569	761.308105
10430.458025	0.241531	0.205569	996.559082
10430.458931	0.239645	0.205569	1213.677246
10430.459845	0.506074	0.205569	1676.229004
10430.460735	0.101023	0.205569	1766.139404
10430.461693	0.101129	0.205569	1863.021118
10430.462587	0.103546	0.205569	1955.591309
10430.463480	0.103949	0.205569	2048.417725
10430.464412	0.101239	0.205569	2142.772461
10430.465322	0.102100	0.205569	2235.683105
10430.466221	0.102620	0.205569	2327.938232
10430.467117	0.101909	0.205569	2419.248779
10430.468063	0.099902	0.205569	2513.756348
10430.468968	0.100917	0.205569	2605.085937
10431.488466	0.701404	0.209199	310.721893
10431.489367	0.255333	0.209199	540.777161
10431.490259	0.249979	0.209199	763.758667
10431.491221	0.241692	0.209199	996.266296
10431.492136	0.239806	0.209199	1215.688721
10431.493047	0.502324	0.209199	1673.306152
10431.493981	0.100415	0.209199	1767.093750
10431.494893	0.100997	0.209199	1859.203247
10431.495797	0.104813	0.209199	1953.954346
10431.496687	0.102744	0.209199	2045.396606
10431.497637	0.100708	0.209199	2141.069336
10431.498544	0.101265	0.209199	2232.916260
10431.499444	0.102719	0.209199	2325.362793
10431.500354	0.100854	0.209199	2417.140381
10431.501285	0.099851	0.209199	2510.101807
10431.502190	0.101309	0.209199	2601.786133
10432.484820	0.681412	0.210250	302.547089
10432.485731	0.255297	0.210250	535.122314
10432.486626	0.250166	0.210250	759.020874
10432.487564	0.241641	0.210250	985.679749
10432.488473	0.239707	0.210250	1203.573486
10432.489390	0.514772	0.210250	1675.619141
10432.490278	0.101536	0.210250	1765.782837
10432.491228	0.100587	0.210250	1861.340576
10432.492130	0.101763	0.210250	1953.130493
10432.493034	0.103400	0.210250	2046.603760
10432.493922	0.102301	0.210250	2137.447021
10432.494871	0.100844	0.210250	2233.147461
10432.495774	0.103304	0.210250	2326.431396
10432.496663	0.102180	0.210250	2417.269531
10432.497592	0.101118	0.210250	2511.208252
10432.498503	0.100745	0.210250	2602.986572
10433.528273	0.692197	0.197360	306.643402
10433.529181	0.255458	0.197360	538.599060
10433.530079	0.249778	0.197360	762.899536
10433.531046	0.241578	0.197360	996.505798
10433.531966	0.239769	0.197360	1217.093506
10433.532870	0.492396	0.197360	1662.219727
10433.533818	0.100408	0.197360	1757.406250
10433.534722	0.100822	0.197360	1848.548950
10433.535616	0.103114	0.197360	1940.732910
10433.536508	0.101964	0.197360	2031.684937
10433.537442	0.100356	0.197360	2125.417969
10433.538354	0.100660	0.197360	2217.220215
10433.539251	0.102477	0.197360	2309.141846
10433.540161	0.101825	0.197360	2401.802490
10433.541087	0.099869	0.197360	2494.281494
10433.541998	0.102675	0.197360	2587.818115
10434.515405	0.718579	0.211805	314.737640
10434.516301	0.254993	0.211805	543.211060
10434.517270	0.249349	0.211805	784.830566
10434.518174	0.241414	0.211805	1003.068420
10434.519078	0.239623	0.211805	1219.687500
10434.519984	0.474401	0.211805	1649.494507
10434.520926	0.099716	0.211805	1743.426636
10434.521834	0.101689	0.211805	1835.760620
10434.522723	0.104000	0.211805	1928.216797
10434.523664	0.101166	0.211805	2023.413818
10434.524574	0.100331	0.211805	2114.714844
10434.525471	0.102206	0.211805	2206.393555
10434.526362	0.101982	0.211805	2297.260010
10434.527315	0.100173	0.211805	2392.725098
10434.528217	0.100880	0.211805	2483.718994
10434.529115	0.102433	0.211805	2575.703613
10435.563988	0.686730	0.201827	301.474365
10435.564902	0.255190	0.201827	534.718384
10435.565808	0.249565	0.201827	760.824707
10435.566745	0.241509	0.201827	987.118408
10435.567650	0.239619	0.201827	1203.973755
10435.568559	0.509993	0.201827	1667.557129
10435.569443	0.101818	0.201827	1757.563965
10435.570382	0.100638	0.201827	1852.063477
10435.571279	0.100906	0.201827	1942.575928
10435.572184	0.102411	0.201827	2035.257812
10435.573070	0.101818	0.201827	2125.468262
10435.574023	0.100144	0.201827	2220.905518
10435.574934	0.100734	0.201827	2312.673828
10435.575838	0.101807	0.201827	2404.707031
10435.576769	0.100968	0.201827	2498.708252
10435.577669	0.099957	0.201827	2588.669922
10436.553201	0.701525	0.212824	335.328796
10436.554140	0.255710	0.212824	575.440918
10436.555060	0.248965	0.212824	804.488525
10436.555964	0.241472	0.212824	1022.779358
10436.556911	0.239700	0.212824	1249.775024
10436.557822	0.493667	0.212824	1699.505615
10436.558716	0.101807	0.212824	1790.520752
10436.559603	0.101873	0.212824	1880.881714
10436.560555	0.100723	0.212824	1976.769653
10436.561455	0.101532	0.212824	2068.148437
10436.562351	0.103861	0.212824	2161.208008
10436.563289	0.101942	0.212824	2256.829834
10436.564196	0.100254	0.212824	2347.760254
10436.565111	0.102594	0.212824	2441.633789
10436.566007	0.102708	0.212824	2533.659668
10436.566946	0.100016	0.212824	2627.574463
10437.597656	0.687349	0.198987	306.557465
10437.598554	0.255443	0.198987	535.945374
10437.599454	0.250316	0.198987	761.229919
10437.600405	0.241703	0.198987	991.089355
10437.601320	0.239784	0.198987	1210.491699
10437.602231	0.495531	0.198987	1661.920410
10437.603121	0.101199	0.198987	1751.987305
10437.604075	0.100474	0.198987	1847.839111
10437.604992	0.101814	0.198987	1941.202515
10437.605884	0.103022	0.198987	2033.098511
10437.606772	0.101151	0.198987	2122.920654
10437.607724	0.100690	0.198987	2218.777344
10437.608627	0.100884	0.198987	2309.875488
10437.609518	0.103583	0.198987	2402.167725
10437.610454	0.100181	0.198987	2495.936768
10437.611366	0.100920	0.198987	2587.976074
10438.594002	0.687246	0.223165	305.824493
10438.594921	0.255703	0.223165	540.815674
10438.595825	0.249840	0.223165	766.671143
10438.596763	0.241926	0.223165	993.597961
10438.597678	0.239963	0.223165	1213.164429
10438.598597	0.505594	0.223165	1677.805786
10438.599483	0.101378	0.223165	1767.626831
10438.600439	0.100902	0.223165	1864.089233
10438.601339	0.102177	0.223165	1956.048096
10438.602236	0.103239	0.223165	2048.653076
10438.603167	0.101180	0.223165	2142.852051
10438.604072	0.100148	0.223165	2233.485840
10438.604977	0.101968	0.223165	2325.766602
10438.605868	0.101261	0.223165	2415.990234
10438.606805	0.099749	0.223165	2509.454590
10438.607713	0.100261	0.223165	2600.491699
10439.626216	0.715448	0.203684	334.829651
10439.627160	0.255963	0.203684	576.458862
10439.628077	0.248939	0.203684	804.736084
10439.628977	0.241681	0.203684	1022.248901
10439.629912	0.239908	0.203684	1246.563354
10439.630828	0.497179	0.203684	1701.979248
10439.631721	0.102473	0.203684	1793.487793
10439.632608	0.103184	0.203684	1885.011597
10439.633554	0.100935	0.203684	1980.496216
10439.634449	0.101953	0.203684	2071.744141
10439.635346	0.103389	0.203684	2164.483887
10439.636265	0.102041	0.203684	2258.259521
10439.637178	0.100049	0.203684	2349.604004
10439.638086	0.103125	0.203684	2443.241455
10439.638987	0.102620	0.203684	2535.701660
10439.639923	0.100012	0.203684	2629.312988
10440.638939	0.701671	0.217602	319.260376
10440.639834	0.255388	0.217602	547.832764
10440.640810	0.249023	0.217602	790.879639
10440.641724	0.241582	0.217602	1011.685608
10440.642646	0.239663	0.217602	1232.655029
10440.643549	0.405286	0.217602	1598.627930
10440.644506	0.101356	0.217602	1695.625854
10440.645409	0.103949	0.217602	1789.491821
10440.646298	0.103246	0.217602	1881.277344
10440.647244	0.101133	0.217602	1976.948975
10440.648161	0.102286	0.217602	2070.745605
10440.649081	0.102664	0.217602	2165.196045
10440.649971	0.102246	0.217602	2256.195068
10440.650931	0.100913	0.217602	2353.071533
10440.651828	0.102799	0.217602	2445.282227
10440.652713	0.102114	0.217602	2535.653320
10441.652729	0.715759	0.212776	350.722046
10441.653657	0.255461	0.212776	587.790283
10441.654576	0.248661	0.212776	816.309631
10441.655479	0.241304	0.212776	1034.206909
10441.656424	0.239315	0.212776	1260.359741
10441.657339	0.497432	0.212776	1715.509644
10441.658237	0.103114	0.212776	1808.106079
10441.659128	0.101960	0.212776	1898.952881
10441.660075	0.100573	0.212776	1994.195068
10441.660978	0.101331	0.212776	2085.696533
10441.661869	0.102975	0.212776	2177.447021
10441.662805	0.100994	0.212776	2271.977051
10441.663708	0.100214	0.212776	2362.469971
10441.664603	0.102865	0.212776	2454.534180
10441.665502	0.102312	0.212776	2546.512695
10441.666453	0.100009	0.212776	2641.620850
10442.678728	0.727006	0.207390	316.247437
10442.679693	0.256183	0.207390	563.463867
10442.680609	0.249727	0.207390	792.213379
10442.681517	0.241791	0.207390	1011.759399
10442.682412	0.239883	0.207390	1226.454590
10442.683383	0.499768	0.207390	1711.729370
10442.684287	0.101499	0.207390	1803.484497
10442.685179	0.102136	0.207390	1894.589966
10442.686108	0.101389	0.207390	1988.780518
10442.687014	0.100437	0.207390	2079.776367
10442.687919	0.102565	0.207390	2172.597412
10442.688812	0.101503	0.207390	2263.239258
10442.689763	0.099972	0.207390	2358.312500
10442.690657	0.100140	0.207390	2447.837891
10442.691556	0.101993	0.207390	2539.530029
10442.692443	0.100833	0.207390	2628.968506
10443.685320	0.722552	0.214226	315.755432
10443.686275	0.255890	0.214226	560.130249
10443.687190	0.249481	0.214226	788.405518
10443.688097	0.241696	0.214226	1007.623413
10443.688991	0.239967	0.214226	1222.153931
10443.689952	0.506836	0.214226	1709.223267
10443.690863	0.101276	0.214226	1801.485352
10443.691759	0.102832	0.214226	1893.622803
10443.692705	0.100975	0.214226	1989.145508
10443.693610	0.100430	0.214226	2080.034424
10443.694501	0.102561	0.214226	2171.416260
10443.695393	0.102539	0.214226	2262.881104
10443.696321	0.100232	0.214226	2355.896240
10443.697230	0.100781	0.214226	2447.506348
10443.698134	0.102301	0.214226	2539.986572
10443.699025	0.101276	0.214226	2630.223145
10444.714444	0.714470	0.203527	313.652435
10444.715337	0.255476	0.203527	541.792603
10444.716320	0.249408	0.203527	786.960632
10444.717228	0.241783	0.203527	1006.500000
10444.718129	0.239890	0.203527	1222.640991
10444.719059	0.479582	0.203527	1668.652710
10444.719975	0.099946	0.203527	1760.203491
10444.720890	0.102125	0.203527	1853.648071
10444.721780	0.102594	0.203527	1944.956787
10444.722708	0.100679	0.203527	2038.386597
10444.723616	0.100521	0.203527	2129.659912
10444.724513	0.101510	0.203527	2220.714355
10444.725403	0.102722	0.203527	2312.137207
10444.726359	0.099950	0.203527	2407.689453
10444.727264	0.100353	0.203527	2498.508789
10444.728162	0.102953	0.203527	2590.960449
10445.720075	0.716338	0.221131	358.885254
10445.720974	0.255853	0.221131	588.897339
10445.721899	0.249119	0.221131	819.332092
10445.722803	0.241443	0.221131	1037.596436
10445.723757	0.239612	0.221131	1266.186035
10445.724677	0.503665	0.221131	1729.557373
10445.725569	0.104249	0.221131	1822.547729
10445.726484	0.101785	0.221131	1915.680664
10445.727405	0.102228	0.221131	2009.832397
10445.728303	0.102136	0.221131	2101.550781
10445.729195	0.103568	0.221131	2193.933594
10445.730135	0.100972	0.221131	2288.846924
10445.731029	0.102001	0.221131	2380.035645
10445.731949	0.102755	0.221131	2474.570312
10445.732843	0.101931	0.221131	2565.696777
10445.733792	0.100510	0.221131	2661.081055
10446.748108	0.728621	0.204780	316.949951
10446.749057	0.255443	0.204780	559.365479
10446.749975	0.249324	0.204780	788.244690
10446.750886	0.241776	0.204780	1008.502747
10446.751782	0.239901	0.204780	1223.454102
10446.752744	0.503558	0.204780	1707.877197
10446.753651	0.100280	0.204780	1798.830688
10446.754548	0.103539	0.204780	1891.704956
10446.755440	0.101777	0.204780	1982.490356
10446.756374	0.100558	0.204780	2076.411377
10446.757282	0.102664	0.204780	2169.629883
10446.758180	0.101946	0.204780	2261.177246
10446.759115	0.100902	0.204780	2355.520752
10446.760022	0.100034	0.204780	2446.251709
10446.760926	0.102356	0.204780	2538.781494
10446.761814	0.101136	0.204780	2628.590576
10447.761866	0.720026	0.223109	316.091248
10447.762835	0.255853	0.223109	564.013062
10447.763754	0.249302	0.223109	793.121399
10447.764650	0.241611	0.223109	1009.605164
10447.765595	0.239817	0.223109	1236.232178
10447.766518	0.487767	0.223109	1686.441406
10447.767417	0.102312	0.223109	1778.419922
10447.768311	0.102997	0.223109	1870.499023
10447.769243	0.100803	0.223109	1964.447632
10447.770145	0.100898	0.223109	2055.458008
10447.771049	0.102777	0.223109	2148.368408
10447.771936	0.101777	0.223109	2238.645020
10447.772873	0.100071	0.223109	2332.411377
10447.773775	0.101320	0.223109	2423.801758
10447.774665	0.101825	0.223109	2514.426025
10447.775587	0.100437	0.223109	2607.029053
10448.780779	0.715382	0.203358	337.660339
10448.781692	0.255278	0.203358	570.729431
10448.782589	0.249404	0.203358	794.445068
10448.783568	0.241359	0.203358	1030.735107
10448.784478	0.239531	0.203358	1248.708496
10448.785382	0.511014	0.203358	1710.665527
10448.786310	0.100507	0.203358	1803.935669
10448.787218	0.102477	0.203358	1896.984619
10448.788118	0.102506	0.203358	1989.240112
10448.789004	0.102788	0.203358	2080.310303
10448.789941	0.100818	0.203358	2174.776611
10448.790850	0.100990	0.203358	2266.576416
10448.791766	0.101975	0.203358	2359.985596
10448.792660	0.101459	0.203358	2450.689697
10448.793620	0.101023	0.203358	2547.671631
10448.794526	0.101891	0.203358	2639.984863
10449.801676	0.696222	0.224269	307.730072
10449.802651	0.256102	0.224269	557.429810
10449.803568	0.249386	0.224269	786.116760
10449.804466	0.241531	0.224269	1003.011353
10449.805414	0.239777	0.224269	1230.319580
10449.806330	0.474239	0.224269	1664.722900
10449.807229	0.102429	0.224269	1756.806763
10449.808121	0.104220	0.224269	1849.770996
10449.809062	0.100441	0.224269	1944.285645
10449.809963	0.100928	0.224269	2035.221558
10449.810871	0.102744	0.224269	2128.513184
10449.811758	0.101558	0.224269	2218.594727
10449.812701	0.099943	0.224269	2312.840576
10449.813609	0.102239	0.224269	2405.673340
10449.814501	0.102968	0.224269	2497.520264
10449.815445	0.100155	0.224269	2592.066650
10450.812371	0.679186	0.203769	300.879272
10450.813287	0.255714	0.203769	535.113403
10450.814197	0.250338	0.203769	762.921143
10450.815122	0.241904	0.203769	986.682617
10450.816046	0.239941	0.203769	1208.388428
10450.816966	0.510073	0.203769	1677.655762
10450.817855	0.102173	0.203769	1768.487427
10450.818798	0.100887	0.203769	1863.624268
10450.819707	0.101334	0.203769	1955.737061
10450.820603	0.103641	0.203769	2048.599609
10450.821488	0.102198	0.203769	2139.045166
10450.822415	0.100466	0.203769	2232.177490
10450.823326	0.101140	0.203769	2324.316162
10450.824223	0.102316	0.203769	2416.093262
10450.825137	0.100503	0.203769	2507.952881
10450.826046	0.099606	0.203769	2598.494385
10451.841477	0.706743	0.211108	308.846771
10451.842470	0.256165	0.211108	563.218140
10451.843388	0.249075	0.211108	791.868713
10451.844290	0.241567	0.211108	1009.762512
10451.845236	0.239821	0.211108	1236.632812
10451.846151	0.485398	0.211108	1680.771973
10451.847050	0.102268	0.211108	1772.710937
10451.847937	0.103180	0.211108	1864.231567
10451.848878	0.100895	0.211108	1959.173584
10451.849781	0.101041	0.211108	2050.413818
10451.850682	0.102609	0.211108	2142.864258
10451.851570	0.101605	0.211108	2233.089600
10451.852523	0.100192	0.211108	2328.572266
10451.853432	0.100997	0.211108	2420.378906
10451.854327	0.101891	0.211108	2511.571289
10451.855272	0.100635	0.211108	2606.671143
10452.846033	0.690970	0.203362	304.717987
10452.846929	0.255099	0.203362	533.286621
10452.847823	0.250129	0.203362	756.902344
10452.848776	0.241531	0.203362	987.081177
10452.849690	0.239641	0.203362	1206.113159
10452.850608	0.512563	0.203362	1676.646484
10452.851501	0.101741	0.203362	1767.500977
10452.852436	0.100906	0.203362	1861.847900
10452.853345	0.103304	0.203362	1955.751587
10452.854238	0.103517	0.203362	2048.192139
10452.855173	0.100939	0.203362	2142.569824
10452.856073	0.100459	0.203362	2232.982910
10452.856975	0.102781	0.203362	2325.691162
10452.857866	0.101792	0.203362	2416.387939
10452.858815	0.099855	0.203362	2511.150146
10452.859721	0.100455	0.203362	2602.162598
10453.878214	0.717019	0.201311	311.903290
10453.879169	0.255505	0.201311	555.910889
10453.880089	0.249441	0.201311	785.396545
10453.881012	0.241666	0.201311	1008.454468
10453.881908	0.239843	0.201311	1223.353394
10453.882881	0.477733	0.201311	1688.187744
10453.883787	0.102418	0.201311	1780.978638
10453.884716	0.102645	0.201311	1876.336060
10453.885606	0.102766	0.201311	1967.797852
10453.886557	0.101755	0.201311	2064.567139
10453.887450	0.102286	0.201311	2155.908936
10453.888341	0.104795	0.201311	2249.281250
10453.889270	0.101440	0.201311	2343.519531
10453.890175	0.103865	0.201311	2437.517090
10453.891097	0.101821	0.201311	2531.396240
10453.891984	0.101946	0.201311	2621.822266
10454.879713	0.691791	0.201158	314.764801
10454.880603	0.255557	0.201158	542.210205
10454.881549	0.249807	0.201158	778.527771
10454.882470	0.241853	0.201158	1001.274414
10454.883380	0.239996	0.201158	1219.671143
10454.884283	0.507415	0.201158	1677.866455
10454.885238	0.100254	0.201158	1773.608887
10454.886140	0.101429	0.201158	1865.098267
10454.887049	0.103055	0.201158	1958.775635
10454.887947	0.101239	0.201158	2049.688232
10454.888889	0.100620	0.201158	2144.472412
10454.889796	0.102202	0.201158	2237.169678
10454.890684	0.102290	0.201158	2328.003174
10454.891613	0.100312	0.201158	2421.193359
10454.892518	0.099946	0.201158	2511.644775
10454.893422	0.102850	0.201158	2604.621582
10455.914952	0.720747	0.198552	316.407959
10455.915922	0.255718	0.198552	564.454224
10455.916835	0.248925	0.198552	791.722351
10455.917731	0.241648	0.198552	1008.238892
10455.918670	0.239707	0.198552	1233.323853
10455.919595	0.499208	0.198552	1695.091064
10455.920499	0.101935	0.198552	1787.240112
10455.921390	0.102360	0.198552	1878.442505
10455.922331	0.100712	0.198552	1973.212158
10455.923235	0.103528	0.198552	2066.801270
10455.924125	0.103378	0.198552	2158.807373
10455.925039	0.100972	0.198552	2251.095459
10455.925967	0.100386	0.198552	2344.253418
10455.926873	0.102008	0.198552	2436.672607
10455.927765	0.101895	0.198552	2527.562500
10455.928701	0.099921	0.198552	2621.088135
10456.917453	0.714375	0.189931	312.896271
10456.918426	0.255469	0.189931	561.467407
10456.919348	0.248859	0.189931	790.915039
10456.920243	0.241373	0.189931	1006.944092
10456.921171	0.239641	0.189931	1229.331055
10456.922109	0.502086	0.189931	1700.287842
10456.923024	0.102198	0.189931	1793.799438
10456.923924	0.103407	0.189931	1886.865723
10456.924857	0.101257	0.189931	1981.338867
10456.925761	0.100931	0.189931	2072.580811
10456.926667	0.102290	0.189931	2165.255615
10456.927558	0.101327	0.189931	2255.537842
10456.928486	0.100052	0.189931	2348.386475
10456.929393	0.101122	0.189931	2440.104004
10456.930285	0.101323	0.189931	2530.484375
10456.931204	0.102389	0.189931	2624.579834
10457.948633	0.691970	0.205239	303.774933
10457.949549	0.255685	0.205239	537.982239
10457.950452	0.250338	0.205239	764.037598
10457.951386	0.241882	0.205239	989.955688
10457.952296	0.240051	0.205239	1208.402344
10457.953213	0.510806	0.205239	1676.811157
10457.954100	0.101748	0.205239	1767.061646
10457.955047	0.100950	0.205239	1862.661011
10457.955955	0.101807	0.205239	1955.101440
10457.956849	0.102407	0.205239	2046.653442
10457.957780	0.101638	0.205239	2141.278564
10457.958692	0.100323	0.205239	2232.773682
10457.959595	0.102656	0.205239	2325.472168
10457.960494	0.102173	0.205239	2417.325684
10457.961424	0.100049	0.205239	2510.371094
10457.962333	0.100038	0.205239	2601.305420
10458.955210	0.718601	0.188050	314.028656
10458.956192	0.255963	0.188050	565.384399
10458.957098	0.249258	0.188050	791.211975
10458.957994	0.241805	0.188050	1007.869629
10458.958917	0.239879	0.188050	1229.278076
10458.959850	0.433370	0.188050	1633.612549
10458.960779	0.101539	0.188050	1727.942627
10458.961686	0.102913	0.188050	1821.284302
10458.962638	0.102821	0.188050	1919.169922
10458.963555	0.102609	0.188050	2013.262085
10458.964466	0.102407	0.188050	2106.555176
10458.965356	0.102444	0.188050	2197.730225
10458.966311	0.102286	0.188050	2295.413818
10458.967232	0.102008	0.188050	2389.363281
10458.968127	0.102206	0.188050	2480.837402
10458.969062	0.102440	0.188050	2576.618896
10459.983306	0.719286	0.211459	314.327942
10459.984247	0.255227	0.211459	554.496582
10459.985164	0.249510	0.211459	783.297729
10459.986083	0.241450	0.211459	1005.190491
10459.986982	0.239626	0.211459	1220.614746
10459.987939	0.504569	0.211459	1703.487427
10459.988843	0.100265	0.211459	1794.126953
10459.989749	0.102308	0.211459	1886.818359
10459.990637	0.102733	0.211459	1978.045410
10459.991581	0.100598	0.211459	2073.010010
10459.992493	0.101825	0.211459	2165.874268
10459.993382	0.102499	0.211459	2256.995605
10459.994332	0.101136	0.211459	2353.075195
10459.995225	0.100067	0.211459	2442.435059
10459.996123	0.102444	0.211459	2534.429687
10459.997011	0.101506	0.211459	2624.567383
10460.991954	0.701074	0.191539	310.575897
10460.992856	0.255626	0.191539	541.150757
10460.993753	0.250327	0.191539	765.694214
10460.994700	0.242014	0.191539	994.881592
10460.995614	0.239967	0.191539	1214.211426
10460.996524	0.518104	0.191539	1685.686279
10460.997410	0.102748	0.191539	1776.720825
10460.998353	0.100558	0.191539	1871.546875
10460.999264	0.101960	0.191539	1964.432861
10461.000165	0.103425	0.191539	2057.619141
10461.001053	0.101678	0.191539	2147.909668
10461.002012	0.100657	0.191539	2244.439453
10461.002914	0.102078	0.191539	2336.513428
10461.003802	0.102037	0.191539	2427.122559
10461.004735	0.100569	0.191539	2520.953369
10461.005639	0.100715	0.191539	2612.000000
10462.014946	0.693428	0.217187	312.042450
10462.015871	0.255524	0.217187	548.401855
10462.016769	0.249719	0.217187	772.649719
10462.017720	0.241758	0.217187	1002.561401
10462.018634	0.239956	0.217187	1221.881226
10462.019549	0.502031	0.217187	1681.239746
10462.020434	0.101459	0.217187	1771.030762
10462.021397	0.100924	0.217187	1868.220703
10462.022305	0.101550	0.217187	1960.428345
10462.023210	0.103228	0.217187	2053.849365
10462.024147	0.101375	0.217187	2148.837402
10462.025058	0.100166	0.217187	2240.088623
10462.025960	0.101232	0.217187	2331.399658
10462.026849	0.102715	0.217187	2422.713135
10462.027783	0.099844	0.217187	2515.967285
10462.028684	0.100459	0.217187	2606.480713
10463.030783	0.732074	0.197078	359.448303
10463.031711	0.255981	0.197078	596.999084
10463.032621	0.249265	0.197078	823.830322
10463.033521	0.241769	0.197078	1041.422241
10463.034492	0.239854	0.197078	1274.319946
10463.035413	0.492729	0.197078	1728.123779
10463.036303	0.103828	0.197078	1820.530762
10463.037224	0.102220	0.197078	1914.675781
10463.038139	0.100906	0.197078	2007.004517
10463.039040	0.101642	0.197078	2098.583740
10463.039934	0.104348	0.197078	2191.871094
10463.040869	0.100803	0.197078	2286.122070
10463.041779	0.100737	0.197078	2377.792969
10463.042688	0.102437	0.197078	2470.907715
10463.043577	0.101382	0.197078	2561.036133
10463.044522	0.099921	0.197078	2655.461182
10464.046543	0.711222	0.222081	316.493774
10464.047437	0.255494	0.222081	544.905762
10464.048411	0.249514	0.222081	787.932556
10464.049315	0.241652	0.222081	1006.385620
10464.050211	0.239897	0.222081	1221.333740
10464.051171	0.482567	0.222081	1684.598145
10464.052091	0.101162	0.222081	1777.667236
10464.052997	0.103074	0.222081	1871.052002
10464.053889	0.101949	0.222081	1961.990967
10464.054840	0.100653	0.222081	2057.712158
10464.055743	0.103088	0.222081	2150.801025
10464.056633	0.103121	0.222081	2242.579102
10464.057543	0.102034	0.222081	2335.429687
10464.058463	0.100477	0.222081	2427.868896
10464.059359	0.102378	0.222081	2519.599609
10464.060248	0.103066	0.222081	2611.225586
10465.069509	0.723582	0.199132	313.310822
10465.070460	0.255330	0.199132	556.129272
10465.071382	0.249595	0.199132	786.255615
10465.072293	0.241468	0.199132	1006.233398
10465.073190	0.239568	0.199132	1221.125732
10465.074162	0.506763	0.199132	1713.699097
10465.075059	0.100408	0.199132	1803.764771
10465.075960	0.103257	0.199132	1896.799194
10465.076846	0.102198	0.199132	1987.347046
10465.077789	0.100532	0.199132	2082.148926
10465.078686	0.101938	0.199132	2173.587646
10465.079585	0.102008	0.199132	2265.292969
10465.080522	0.100902	0.199132	2359.838135
10465.081426	0.099928	0.199132	2450.173096
10465.082329	0.102440	0.199132	2542.676514
10465.083218	0.102305	0.199132	2633.625488
10466.079190	0.692992	0.220458	307.688416
10466.080084	0.255216	0.220458	535.851562
10466.081049	0.249364	0.220458	776.487854
10466.081971	0.241630	0.220458	999.270386
10466.082876	0.239813	0.220458	1216.301392
10466.083826	0.508553	0.220458	1699.427124
10466.084735	0.100239	0.220458	1790.544556
10466.085635	0.103217	0.220458	1883.439453
10466.086527	0.102444	0.220458	1974.819336
10466.087468	0.100756	0.220458	2069.630371
10466.088375	0.101221	0.220458	2161.437500
10466.089284	0.103656	0.220458	2255.660889
10466.090179	0.101375	0.220458	2346.391113
10466.091128	0.100151	0.220458	2441.434814
10466.092041	0.102371	0.220458	2534.899170
10466.092939	0.102286	0.220458	2626.752441
10467.109342	0.721040	0.199289	326.631165
10467.110238	0.255425	0.199289	555.491821
10467.111178	0.249825	0.199289	790.327759
10467.112097	0.241736	0.199289	1012.483032
10467.113023	0.239788	0.199289	1234.526367
10467.113935	0.502467	0.199289	1692.776367
10467.114882	0.100221	0.199289	1787.685547
10467.115790	0.102887	0.199289	1881.106934
10467.116713	0.103125	0.199289	1976.291260
10467.117599	0.102363	0.199289	2066.985107
10467.118548	0.101832	0.199289	2163.624023
10467.119441	0.102656	0.199289	2255.296143
10467.120329	0.102689	0.199289	2346.484131
10467.121257	0.100697	0.199289	2439.930908
10467.122161	0.102261	0.199289	2532.374512
10467.123076	0.101917	0.199289	2625.628174
10468.112840	0.714470	0.214907	313.652435
10468.113809	0.256183	0.214907	561.893616
10468.114723	0.249496	0.214907	789.932861
10468.115635	0.241747	0.214907	1010.406006
10468.116529	0.239879	0.214907	1224.857910
10468.117488	0.503782	0.214907	1707.984619
10468.118392	0.101759	0.214907	1799.974731
10468.119285	0.103634	0.214907	1892.519897
10468.120217	0.101466	0.214907	1987.086304
10468.121132	0.100488	0.214907	2079.033203
10468.122031	0.101964	0.214907	2170.698975
10468.122922	0.103129	0.214907	2262.586670
10468.123880	0.100323	0.214907	2358.696533
10468.124778	0.100459	0.214907	2448.908691
10468.125680	0.103513	0.214907	2542.277588
10468.126564	0.101832	0.214907	2632.297363
10469.145049	0.687290	0.209473	307.218658
10469.145945	0.255597	0.209473	536.233521
10469.146913	0.249606	0.209473	777.851868
10469.147821	0.241783	0.209473	997.391235
10469.148723	0.239963	0.209473	1213.838135
10469.149625	0.503137	0.209473	1667.667969
10469.150563	0.099858	0.209473	1761.335205
10469.151472	0.101689	0.209473	1853.770874
10469.152374	0.103641	0.209473	1947.255371
10469.153291	0.101719	0.209473	2040.531494
10469.154206	0.100594	0.209473	2132.575439
10469.155108	0.103850	0.209473	2226.248291
10469.156000	0.102491	0.209473	2317.670654
10469.156934	0.100192	0.209473	2411.249756
10469.157835	0.100272	0.209473	2501.594971
10469.158730	0.102495	0.209473	2593.328125
10470.152660	0.718894	0.209481	319.907867
10470.153560	0.255571	0.209481	549.921997
10470.154492	0.250060	0.209481	782.977722
10470.155415	0.241663	0.209481	1006.032288
10470.156340	0.239875	0.209481	1227.917114
10470.157237	0.502324	0.209481	1678.501953
10470.158191	0.101400	0.209481	1775.237671
10470.159093	0.103334	0.209481	1868.444702
10470.160005	0.103480	0.209481	1962.818726
10470.160899	0.102316	0.209481	2054.288818
10470.161835	0.101873	0.209481	2149.641602
10470.162754	0.102697	0.209481	2244.019775
10470.163652	0.102400	0.209481	2335.974854
10470.164577	0.101624	0.209481	2429.976562
10470.165500	0.102894	0.209481	2524.947998
10470.166422	0.103568	0.209481	2620.437744
10471.175626	0.704923	0.220462	308.051392
10471.176589	0.255648	0.220462	554.240601
10471.177507	0.249236	0.220462	783.039124
10471.178414	0.241926	0.220462	1002.466248
10471.179312	0.240201	0.220462	1218.167114
10471.180272	0.499076	0.220462	1697.280029
10471.181176	0.100895	0.220462	1788.488892
10471.182079	0.102997	0.220462	1881.494995
10471.182972	0.101422	0.220462	1972.064941
10471.183912	0.100558	0.220462	2066.589355
10471.184816	0.101656	0.220462	2158.486816
10471.185716	0.102810	0.220462	2251.015869
10471.186653	0.100895	0.220462	2345.554199
10471.187553	0.100151	0.220462	2435.690430
10471.188453	0.102396	0.220462	2527.847168
10471.189339	0.101946	0.220462	2618.171143
10472.193526	0.582418	0.211265	276.066223
10472.194448	0.255692	0.211265	511.814392
10472.195355	0.249210	0.211265	737.848083
10472.196275	0.241780	0.211265	960.285522
10472.197207	0.239912	0.211265	1183.883545
10472.198131	0.496102	0.211265	1642.282104
10472.199030	0.103011	0.211265	1734.889404
10472.199986	0.101184	0.211265	1831.621338
10472.200885	0.101136	0.211265	1922.542969
10472.201788	0.102975	0.211265	2015.529297
10472.202676	0.102711	0.211265	2106.736816
10472.203612	0.100422	0.211265	2200.732178
10472.204525	0.101235	0.211265	2293.160156
10472.205421	0.102719	0.211265	2385.196045
10472.206350	0.101836	0.211265	2479.801514
10472.207260	0.100173	0.211265	2570.959229
10473.205220	0.663094	0.228873	303.034180
10473.206120	0.255289	0.228873	532.794556
10473.207037	0.249741	0.228873	761.807251
10473.207977	0.241761	0.228873	989.063049
10473.208880	0.239985	0.228873	1205.769775
10473.209783	0.498186	0.228873	1655.631714
10473.210714	0.100488	0.228873	1749.186279
10473.211621	0.102429	0.228873	1842.089600
10473.212539	0.102759	0.228873	1936.422119
10473.213432	0.102063	0.228873	2027.564331
10473.214378	0.101250	0.228873	2123.346924
10473.215271	0.102327	0.228873	2214.724609
10473.216159	0.103096	0.228873	2306.273682
10473.217073	0.100829	0.228873	2398.431152
10473.218009	0.100964	0.228873	2492.933838
10473.218902	0.102224	0.228873	2584.219971
10474.238414	0.714760	0.201444	315.923706
10474.239306	0.255308	0.201444	543.658081
10474.240252	0.249639	0.201444	779.816284
10474.241183	0.241794	0.201444	1004.926880
10474.242085	0.239886	0.201444	1221.304443
10474.243037	0.506821	0.201444	1703.798340
10474.243938	0.100005	0.201444	1793.902710
10474.244848	0.102253	0.201444	1886.953369
10474.245739	0.102140	0.201444	1977.959961
10474.246682	0.100488	0.201444	2072.720459
10474.247585	0.101591	0.201444	2164.456787
10474.248483	0.102261	0.201444	2256.286865
10474.249384	0.101371	0.201444	2347.622070
10474.250303	0.099990	0.201444	2439.513184
10474.251209	0.101605	0.201444	2531.567627
10474.252107	0.103217	0.201444	2624.256104
10475.233757	0.679050	0.225103	305.572632
10475.234655	0.255685	0.225103	535.177612
10475.235553	0.250316	0.225103	759.961487
10475.236505	0.241985	0.225103	990.331055
10475.237415	0.240092	0.225103	1208.814331
10475.238336	0.495714	0.225103	1665.366943
10475.239225	0.101843	0.225103	1755.905640
10475.240183	0.100898	0.225103	1852.566406
10475.241095	0.102898	0.225103	1946.409302
10475.241990	0.103425	0.225103	2038.974976
10475.242916	0.101012	0.225103	2132.511963
10475.243812	0.100166	0.225103	2222.260742
10475.244710	0.101506	0.225103	2313.413330
10475.245595	0.102191	0.225103	2403.852539
10475.246525	0.099836	0.225103	2496.700439
10475.247431	0.100569	0.225103	2587.815918
10476.282317	0.702869	0.197424	309.965057
10476.283290	0.255916	0.197424	558.970825
10476.284203	0.249309	0.197424	786.590027
10476.285104	0.241809	0.197424	1004.460022
10476.285996	0.240062	0.197424	1218.595581
10476.286948	0.475338	0.197424	1671.117554
10476.287847	0.102078	0.197424	1762.885376
10476.288735	0.104260	0.197424	1855.468506
10476.289648	0.102953	0.197424	1949.464478
10476.290574	0.101136	0.197424	2043.116821
10476.291479	0.102938	0.197424	2136.275879
10476.292368	0.103015	0.197424	2227.856445
10476.293312	0.100496	0.197424	2322.724365
10476.294222	0.100975	0.197424	2414.611816
10476.295118	0.103176	0.197424	2507.057861
10476.296004	0.101199	0.197424	2596.719971
10477.265358	0.728767	0.215789	321.386292
10477.266330	0.255681	0.215789	569.908325
10477.267237	0.249016	0.215789	795.765930
10477.268142	0.241490	0.215789	1014.314819
10477.269039	0.239586	0.215789	1229.223633
10477.269996	0.488793	0.215789	1696.998291
10477.270901	0.101276	0.215789	1788.652710
10477.271799	0.103561	0.215789	1881.650269
10477.272733	0.101528	0.215789	1976.477661
10477.273645	0.100950	0.215789	2068.543701
10477.274550	0.103011	0.215789	2161.769043
10477.275443	0.102491	0.215789	2253.293945
10477.276394	0.100334	0.215789	2348.711914
10477.277306	0.101147	0.215789	2440.958496
10477.278198	0.102638	0.215789	2532.511475
10477.279112	0.100400	0.215789	2624.277344
10478.316021	0.610906	0.208570	293.234772
10478.316937	0.255626	0.208570	527.388428
10478.317844	0.249302	0.208570	753.505127
10478.318741	0.241578	0.208570	970.200928
10478.319692	0.239725	0.208570	1198.179687
10478.320613	0.506166	0.208570	1664.358398
10478.321506	0.103085	0.208570	1756.413086
10478.322430	0.102426	0.208570	1851.054321
10478.323337	0.100785	0.208570	1942.466187
10478.324244	0.102642	0.208570	2035.562134
10478.325143	0.103744	0.208570	2128.827881
10478.326087	0.100532	0.208570	2223.730225
10478.326988	0.100481	0.208570	2314.263672
10478.327891	0.102817	0.208570	2407.107666
10478.328778	0.101206	0.208570	2496.877441
10478.329726	0.099807	0.208570	2591.494629
10479.303116	0.720249	0.211386	315.469086
10479.304096	0.255667	0.211386	566.022278
10479.304998	0.249031	0.211386	790.648010
10479.305891	0.241813	0.211386	1006.586792
10479.306848	0.240022	0.211386	1236.287842
10479.307756	0.494030	0.211386	1684.866699
10479.308676	0.102946	0.211386	1779.576660
10479.309577	0.102971	0.211386	1872.353760
10479.310517	0.101935	0.211386	1968.172485
10479.311424	0.102323	0.211386	2060.979492
10479.312317	0.102576	0.211386	2152.579590
10479.313251	0.100898	0.211386	2246.818848
10479.314152	0.102114	0.211386	2338.823730
10479.315053	0.103107	0.211386	2431.722900
10479.315939	0.101429	0.211386	2521.589355
10479.316893	0.100151	0.211386	2617.133789
10480.347601	0.714694	0.222863	315.894562
10480.348495	0.254916	0.222863	543.789246
10480.349463	0.249221	0.222863	785.035339
10480.350379	0.241443	0.222863	1006.197021
10480.351281	0.239564	0.222863	1222.283936
10480.352221	0.493250	0.222863	1685.938477
10480.353129	0.100082	0.222863	1776.812744
10480.354038	0.103879	0.222863	1871.239136
10480.354934	0.102971	0.222863	1963.501343
10480.355871	0.100979	0.222863	2058.118652
10480.356779	0.100580	0.222863	2149.445068
10480.357677	0.102308	0.222863	2241.317871
10480.358566	0.102140	0.222863	2332.120117
10480.359518	0.100243	0.222863	2427.551270
10480.360426	0.101246	0.222863	2519.482910
10480.361326	0.102620	0.222863	2611.840576
10481.339864	0.664226	0.218101	300.230194
10481.340769	0.255487	0.218101	531.445984
10481.341664	0.250345	0.218101	755.505188
10481.342636	0.241772	0.218101	990.507996
10481.343545	0.239850	0.218101	1208.531494
10481.344455	0.508312	0.218101	1671.095215
10481.345368	0.101136	0.218101	1763.432861
10481.346303	0.100558	0.218101	1857.454468
10481.347207	0.102411	0.218101	1950.033936
10481.348103	0.102572	0.218101	2041.938477
10481.349039	0.100499	0.218101	2136.005859
10481.349945	0.100364	0.218101	2226.935547
10481.350848	0.101613	0.218101	2318.691650
10481.351734	0.102023	0.218101	2409.083740
10481.352672	0.100042	0.218101	2502.922607
10481.353580	0.101052	0.218101	2594.677979
10482.382283	0.706981	0.218621	311.071716
10482.383177	0.255465	0.218621	539.457458
10482.384158	0.249254	0.218621	783.975830
10482.385096	0.241710	0.218621	1010.699951
10482.385992	0.239908	0.218621	1225.657959
10482.386957	0.490323	0.218621	1698.820068
10482.387864	0.101722	0.218621	1791.082275
10482.388786	0.102382	0.218621	1885.478149
10482.389676	0.103088	0.218621	1977.226807
10482.390609	0.102726	0.218621	2073.070068
10482.391545	0.102316	0.218621	2168.837646
10482.392447	0.102770	0.218621	2261.535889
10482.393375	0.102081	0.218621	2356.267334
10482.394294	0.101451	0.218621	2449.501221
10482.395216	0.101708	0.218621	2543.275879
10482.396107	0.102162	0.218621	2634.302002
10483.378690	0.730946	0.221803	361.818298
10483.379606	0.256025	0.221803	596.337524
10483.380510	0.249141	0.221803	821.560669
10483.381407	0.241765	0.221803	1038.423950
10483.382363	0.239989	0.221803	1267.853394
10483.383273	0.485446	0.221803	1709.608887
10483.384173	0.102166	0.221803	1801.557861
10483.385059	0.102074	0.221803	1891.995361
10483.386015	0.100679	0.221803	1988.244263
10483.386922	0.102242	0.221803	2080.978027
10483.387813	0.102693	0.221803	2172.477295
10483.388757	0.101166	0.221803	2267.977783
10483.389659	0.100287	0.221803	2358.436523
10483.390565	0.103154	0.221803	2451.894287
10483.391462	0.102404	0.221803	2543.750244
10483.392422	0.100078	0.221803	2639.825195
10484.413900	0.724402	0.221912	317.287994
10484.414798	0.254905	0.221912	546.192505
10484.415779	0.248961	0.221912	790.423401
10484.416694	0.241447	0.221912	1011.346985
10484.417593	0.239736	0.221912	1226.869995
10484.418542	0.511959	0.221912	1712.719360
10484.419440	0.099954	0.221912	1802.477661
10484.420327	0.103671	0.221912	1894.433594
10484.421217	0.103711	0.221912	1986.736328
10484.422153	0.100737	0.221912	2081.026367
10484.423061	0.100972	0.221912	2172.708740
10484.423965	0.103220	0.221912	2266.019775
10484.424853	0.102330	0.221912	2356.889160
10484.425799	0.100250	0.221912	2451.725830
10484.426704	0.102411	0.221912	2544.407715
10484.427594	0.101499	0.221912	2634.741943
10485.417446	0.729419	0.212937	341.368073
10485.418358	0.255271	0.212937	574.175232
10485.419295	0.249126	0.212937	807.606262
10485.420229	0.241373	0.212937	1033.048950
10485.421141	0.239502	0.212937	1251.474731
10485.422043	0.501383	0.212937	1703.722290
10485.422994	0.100854	0.212937	1799.634888
10485.423901	0.103000	0.212937	1893.056396
10485.424826	0.102946	0.212937	1988.281006
10485.425717	0.102151	0.212937	2079.297363
10485.426671	0.101470	0.212937	2176.099365
10485.427569	0.102708	0.212937	2268.330811
10485.428457	0.102902	0.212937	2359.707520
10485.429390	0.100701	0.212937	2453.661133
10485.430301	0.101678	0.212937	2546.290283
10485.431221	0.101803	0.212937	2639.948975
10486.445526	0.678508	0.221102	301.257690
10486.446440	0.254806	0.221102	534.150269
10486.447348	0.249467	0.221102	760.665894
10486.448287	0.241487	0.221102	987.421997
10486.449203	0.239509	0.221102	1206.812500
10486.450127	0.506858	0.221102	1675.149170
10486.451017	0.101807	0.221102	1765.757080
10486.451957	0.100671	0.221102	1860.388184
10486.452854	0.101118	0.221102	1951.091187
10486.453756	0.103140	0.221102	2044.123169
10486.454647	0.102078	0.221102	2135.074219
10486.455603	0.100459	0.221102	2231.113037
10486.456507	0.101129	0.221102	2322.533691
10486.457403	0.102334	0.221102	2414.224854
10486.458332	0.100840	0.221102	2507.905029
10486.459235	0.100052	0.221102	2598.252441
10487.457228	0.728716	0.202669	318.448822
10487.458168	0.255472	0.202669	558.592896
10487.459090	0.249716	0.202669	788.830688
10487.460004	0.241728	0.202669	1009.770508
10487.460912	0.239949	0.202669	1227.643921
10487.461868	0.500863	0.202669	1706.468994
10487.462780	0.100302	0.202669	1797.943970
10487.463685	0.102462	0.202669	1890.672241
10487.464578	0.101858	0.202669	1981.631348
10487.465512	0.100367	0.202669	2075.374512
10487.466417	0.101235	0.202669	2166.992432
10487.467314	0.102396	0.202669	2258.841797
10487.468258	0.100767	0.202669	2353.965576
10487.469149	0.099877	0.202669	2442.955811
10487.470047	0.102528	0.202669	2535.026123
10487.470941	0.103011	0.202669	2627.118408
10488.480221	0.702887	0.215902	324.030884
10488.481164	0.255366	0.215902	564.841187
10488.482060	0.249012	0.215902	787.956299
10488.483023	0.241216	0.215902	1020.247131
10488.483930	0.239370	0.215902	1237.355835
10488.484867	0.494337	0.215902	1700.549805
10488.485755	0.101243	0.215902	1790.453247
10488.486716	0.102898	0.215902	1889.338135
10488.487629	0.102213	0.215902	1982.658691
10488.488519	0.103110	0.215902	2074.427002
10488.489453	0.101968	0.215902	2169.664795
10488.490382	0.102627	0.215902	2265.005127
10488.491284	0.102649	0.215902	2357.594482
10488.492198	0.101228	0.215902	2450.116943
10488.493144	0.101960	0.215902	2546.571533
10488.494048	0.103612	0.215902	2640.236816
10489.495050	0.567396	0.194914	280.861145
10489.495959	0.255674	0.194914	513.268677
10489.496870	0.249130	0.194914	740.225769
10489.497769	0.241575	0.194914	957.401428
10489.498703	0.239718	0.194914	1181.298096
10489.499628	0.486954	0.194914	1631.730835
10489.500519	0.102931	0.194914	1723.442261
10489.501456	0.101052	0.194914	1818.128174
10489.502363	0.100598	0.194914	1909.370728
10489.503262	0.102404	0.194914	2001.431519
10489.504149	0.102883	0.194914	2092.688965
10489.505098	0.100247	0.194914	2187.822998
10489.505999	0.100653	0.194914	2278.511475
10489.506896	0.101770	0.194914	2369.799072
10489.507782	0.101873	0.194914	2460.058105
10489.508712	0.100056	0.194914	2553.110352
10490.515919	0.691945	0.215003	305.839508
10490.516831	0.255458	0.215003	538.817017
10490.517728	0.250181	0.215003	763.229065
10490.518675	0.241809	0.215003	992.222290
10490.519602	0.239923	0.215003	1214.630981
10490.520521	0.501632	0.215003	1675.630859
10490.521408	0.101635	0.215003	1765.780640
10490.522359	0.100957	0.215003	1861.790771
10490.523256	0.103022	0.215003	1954.201904
10490.524142	0.103879	0.215003	2046.239014
10490.525072	0.100715	0.215003	2139.904297
10490.525988	0.101396	0.215003	2232.783447
10490.526889	0.102334	0.215003	2324.986328
10490.527780	0.101704	0.215003	2415.604736
10490.528724	0.099741	0.215003	2509.760498
10490.529645	0.100675	0.215003	2602.482178
10491.528676	0.688228	0.197500	311.767059
10491.529595	0.255688	0.197500	546.744751
10491.530496	0.249719	0.197500	771.741821
10491.531438	0.241707	0.197500	999.429382
10491.532343	0.239857	0.197500	1216.500122
10491.533261	0.509758	0.197500	1684.458252
10491.534150	0.101016	0.197500	1774.261108
10491.535106	0.100583	0.197500	1870.418945
10491.536013	0.101785	0.197500	1962.737671
10491.536916	0.102517	0.197500	2055.310547
10491.537851	0.101320	0.197500	2150.044434
10491.538752	0.100404	0.197500	2240.508545
10491.539653	0.102711	0.197500	2333.051270
10491.540540	0.101865	0.197500	2423.405762
10491.541480	0.100034	0.197500	2517.437988
10491.542384	0.100591	0.197500	2608.372070
10492.549584	0.715151	0.217739	317.527222
10492.550477	0.255505	0.217739	545.693481
10492.551437	0.249661	0.217739	785.367676
10492.552349	0.241765	0.217739	1005.857483
10492.553260	0.239875	0.217739	1224.384033
10492.554161	0.469164	0.217739	1647.100586
10492.555118	0.099913	0.217739	1742.717651
10492.556022	0.102638	0.217739	1835.502319
10492.556915	0.103059	0.217739	1927.534058
10492.557852	0.100847	0.217739	2022.027832
10492.558757	0.100367	0.217739	2112.860352
10492.559653	0.103531	0.217739	2205.624512
10492.560544	0.101858	0.217739	2296.379883
10492.561473	0.099932	0.217739	2389.216309
10492.562383	0.100613	0.217739	2480.773926
10492.563292	0.102686	0.217739	2574.114990
10493.563351	0.705011	0.201376	315.139923
10493.564248	0.255696	0.201376	544.499023
10493.565195	0.249954	0.201376	781.205078
10493.566113	0.241743	0.201376	1003.125305
10493.567044	0.239897	0.201376	1226.469849
10493.567944	0.508678	0.201376	1684.280029
10493.568883	0.101115	0.201376	1779.226562
10493.569791	0.101803	0.201376	1871.663696
10493.570706	0.102480	0.201376	1965.433350
10493.571594	0.101653	0.201376	2055.701172
10493.572547	0.101990	0.201376	2152.897461
10493.573452	0.101803	0.201376	2245.029053
10493.574339	0.103180	0.201376	2336.549561
10493.575271	0.100935	0.201376	2430.621094
10493.576189	0.102880	0.201376	2525.064697
10493.577103	0.101689	0.201376	2618.008789
10494.587335	0.720835	0.220269	314.284058
10494.588292	0.255538	0.220269	558.834229
10494.589223	0.248829	0.220269	790.494385
10494.590130	0.241703	0.220269	1009.718872
10494.591065	0.239758	0.220269	1233.892822
10494.591979	0.494766	0.220269	1686.108643
10494.592885	0.102832	0.220269	1779.274414
10494.593771	0.102539	0.220269	1870.124023
10494.594723	0.100730	0.220269	1966.018921
10494.595625	0.102063	0.220269	2058.079834
10494.596520	0.102543	0.220269	2149.855469
10494.597439	0.101265	0.220269	2242.917725
10494.598359	0.099851	0.220269	2334.780762
10494.599271	0.101459	0.220269	2427.311035
10494.600171	0.101400	0.220269	2518.571289
10494.601095	0.100225	0.220269	2611.178711
