time (s)	coil I (A)	last det (V)	int current (uC)
6304.022472	0.732323	0.167014	315.631195
6304.023425	0.255125	0.167014	558.764832
6304.024349	0.249324	0.167014	789.139954
6304.025271	0.485369	0.167014	1236.649902
6304.026159	0.100763	0.167014	1326.127441
6304.027117	0.099895	0.167014	1421.826904
6304.028021	0.100463	0.167014	1512.645142
6304.028916	0.101473	0.167014	1603.463867
6304.029829	0.100309	0.167014	1695.045898
6304.030759	0.099375	0.167014	1787.464600
6304.031665	0.101144	0.167014	1879.100830
6304.032559	0.101056	0.167014	1969.444824
6304.033481	0.099785	0.167014	2061.446777
6304.034379	0.099463	0.167014	2150.764404
6305.053127	0.719550	0.166676	315.882233
6305.054095	0.254938	0.166676	562.661987
6305.055015	0.248540	0.166676	791.318848
6305.055916	0.489825	0.166676	1232.651611
6305.056835	0.101338	0.166676	1325.781128
6305.057764	0.100602	0.166676	1419.240234
6305.058673	0.101715	0.166676	1511.699219
6305.059566	0.101393	0.166676	1602.243042
6305.060525	0.099935	0.166676	1698.081055
6305.061434	0.101986	0.166676	1790.786377
6305.062333	0.101404	0.166676	1881.948364
6305.063221	0.100957	0.166676	1971.598267
6305.064160	0.099261	0.166676	2064.804687
6305.065064	0.100975	0.166676	2156.086426
6306.060254	0.687301	0.187345	305.161621
6306.061180	0.254901	0.187345	541.200073
6306.062092	0.249335	0.187345	768.593323
6306.063039	0.411588	0.187345	1158.367310
6306.063947	0.099108	0.187345	1248.357056
6306.064854	0.101404	0.187345	1340.330322
6306.065749	0.101766	0.187345	1431.411255
6306.066691	0.099851	0.187345	1525.470947
6306.067593	0.100664	0.187345	1616.269897
6306.068487	0.102667	0.187345	1708.054443
6306.069378	0.101411	0.187345	1798.411743
6306.070313	0.099543	0.187345	1891.484863
6306.071222	0.100532	0.187345	1982.868652
6306.072122	0.101364	0.187345	2074.095703
6307.088340	0.714514	0.190479	320.816833
6307.089240	0.254725	0.190479	550.069641
6307.090183	0.249342	0.190479	785.199219
6307.091110	0.449993	0.190479	1202.342407
6307.092004	0.100829	0.190479	1292.483398
6307.092893	0.101730	0.190479	1382.921143
6307.093841	0.099924	0.190479	1477.649414
6307.094745	0.102078	0.190479	1569.927612
6307.095651	0.102341	0.190479	1662.648804
6307.096547	0.100499	0.190479	1752.696167
6307.097489	0.099294	0.190479	1846.231567
6307.098398	0.100312	0.190479	1937.415649
6307.099288	0.100408	0.190479	2026.778564
6307.100219	0.099822	0.190479	2119.712646
6308.094923	0.728848	0.206089	322.150665
6308.095816	0.254615	0.206089	549.522278
6308.096784	0.249042	0.206089	790.594727
6308.097730	0.489313	0.206089	1253.484619
6308.098631	0.100096	0.206089	1343.671509
6308.099564	0.101422	0.206089	1438.298340
6308.100473	0.100027	0.206089	1529.222778
6308.101376	0.102444	0.206089	1621.729614
6308.102267	0.101199	0.206089	1711.897705
6308.103230	0.099825	0.206089	1808.029541
6308.104131	0.100448	0.206089	1898.533203
6308.105028	0.102092	0.206089	1990.109985
6308.105918	0.100437	0.206089	2079.499023
6308.106864	0.099412	0.206089	2173.542480
6309.117425	0.617882	0.206923	294.111877
6309.118329	0.254795	0.206923	524.446472
6309.119222	0.249170	0.206923	746.955200
6309.120192	0.483988	0.206923	1216.423584
6309.121101	0.100800	0.206923	1308.050415
6309.121999	0.103107	0.206923	1400.640259
6309.122929	0.100624	0.206923	1494.220337
6309.123834	0.100276	0.206923	1584.969971
6309.124742	0.102407	0.206923	1677.955688
6309.125633	0.102034	0.206923	1768.867676
6309.126578	0.099331	0.206923	1862.735474
6309.127481	0.099921	0.206923	1952.963867
6309.128375	0.101792	0.206923	2043.965942
6309.129282	0.101100	0.206923	2135.663574
6310.129098	0.706556	0.193911	309.471680
6310.130075	0.255864	0.193911	559.451050
6310.130993	0.249199	0.193911	788.215942
6310.131902	0.484603	0.193911	1228.720337
6310.132849	0.099430	0.193911	1322.880493
6310.133750	0.099976	0.193911	1412.958496
6310.134647	0.103103	0.193911	1505.441895
6310.135534	0.100920	0.193911	1594.958252
6310.136477	0.099976	0.193911	1689.235229
6310.137376	0.100979	0.193911	1780.015381
6310.138279	0.102594	0.193911	1872.657715
6310.139189	0.101323	0.193911	1964.861816
6310.140123	0.099562	0.193911	2057.852539
6310.141031	0.101488	0.193911	2150.003662
6311.145926	0.723417	0.196477	315.409698
6311.146890	0.255494	0.196477	561.706299
6311.147800	0.249569	0.196477	788.814148
6311.148698	0.490873	0.196477	1229.617920
6311.149645	0.099829	0.196477	1324.156128
6311.150562	0.100562	0.196477	1416.371094
6311.151465	0.102122	0.196477	1508.586914
6311.152355	0.102224	0.196477	1599.566406
6311.153287	0.099840	0.196477	1692.617432
6311.154190	0.100906	0.196477	1783.735352
6311.155087	0.102726	0.196477	1875.880371
6311.155977	0.100920	0.196477	1965.699585
6311.156922	0.099664	0.196477	2059.882324
6311.157815	0.101576	0.196477	2150.589600
6312.167400	0.645850	0.186632	302.257599
6312.168304	0.254832	0.186632	532.625305
6312.169256	0.248928	0.186632	769.604980
6312.170174	0.476228	0.186632	1206.782227
6312.171069	0.102268	0.186632	1298.312134
6312.171958	0.102792	0.186632	1389.693970
6312.172905	0.100331	0.186632	1484.707275
6312.173810	0.101147	0.186632	1576.245728
6312.174711	0.102935	0.186632	1668.989746
6312.175598	0.101261	0.186632	1758.808228
6312.176551	0.099617	0.186632	1853.742920
6312.177461	0.100990	0.186632	1945.643799
6312.178353	0.101272	0.186632	2035.978394
6312.179298	0.099781	0.186632	2130.271973
6313.178055	0.728185	0.197996	319.673126
6313.178952	0.254520	0.197996	547.977783
6313.179940	0.248668	0.197996	793.661987
6313.180863	0.481370	0.197996	1237.966187
6313.181756	0.101023	0.197996	1328.179687
6313.182666	0.101521	0.197996	1420.563843
6313.183593	0.100646	0.197996	1513.862427
6313.184493	0.101895	0.197996	1605.567505
6313.185380	0.102458	0.197996	1696.448242
6313.186317	0.100389	0.197996	1790.513062
6313.187227	0.100547	0.197996	1882.010742
6313.188130	0.101876	0.197996	1974.005005
6313.189020	0.101517	0.197996	2064.355469
6313.189980	0.099437	0.197996	2159.815186
6314.207693	0.718044	0.187212	314.503448
6314.208585	0.254854	0.187212	541.832764
6314.209550	0.249478	0.187212	782.578613
6314.210485	0.484768	0.187212	1235.836670
6314.211385	0.101821	0.187212	1327.475830
6314.212319	0.100430	0.187212	1421.277100
6314.213223	0.099796	0.187212	1511.492798
6314.214125	0.101953	0.187212	1603.454468
6314.215015	0.101649	0.187212	1693.922241
6314.215962	0.099602	0.187212	1788.245361
6314.216865	0.100133	0.187212	1878.665527
6314.217758	0.101338	0.187212	1969.160278
6314.218649	0.100792	0.187212	2058.966064
6314.219602	0.099335	0.187212	2153.632080
6315.211244	0.720564	0.205042	340.106171
6315.212149	0.255304	0.205042	571.156250
6315.213110	0.249287	0.205042	810.721191
6315.214033	0.440090	0.205042	1216.924561
6315.214945	0.100562	0.205042	1308.636719
6315.215846	0.103293	0.205042	1401.704102
6315.216784	0.100558	0.205042	1496.027344
6315.217695	0.102301	0.205042	1589.223633
6315.218613	0.102107	0.205042	1682.957764
6315.219501	0.100649	0.205042	1772.334473
6315.220461	0.100957	0.205042	1869.253174
6315.221362	0.101763	0.205042	1960.941406
6315.222253	0.102338	0.205042	2052.124268
6315.223208	0.099943	0.205042	2147.569580
6316.248008	0.728280	0.197621	316.801788
6316.248966	0.255172	0.197621	561.256653
6316.249889	0.249130	0.197621	791.203308
6316.250801	0.479180	0.197621	1228.215210
6316.251688	0.100316	0.197621	1317.195679
6316.252636	0.100265	0.197621	1412.246826
6316.253545	0.101836	0.197621	1504.815674
6316.254440	0.102177	0.197621	1596.263672
6316.255383	0.100920	0.197621	1691.431641
6316.256283	0.099869	0.197621	1781.314087
6316.257182	0.101898	0.197621	1872.920532
6316.258072	0.101429	0.197621	1963.192749
6316.259009	0.099445	0.197621	2056.372314
6316.259913	0.100763	0.197621	2147.461914
6317.243347	0.701093	0.204063	312.687286
6317.244255	0.255469	0.204063	544.652954
6317.245197	0.249884	0.204063	780.043701
6317.246137	0.491748	0.204063	1242.286865
6317.247042	0.100829	0.204063	1333.536987
6317.247944	0.102173	0.204063	1425.696899
6317.248884	0.100096	0.204063	1519.787598
6317.249781	0.099576	0.204063	1609.107666
6317.250677	0.102382	0.204063	1700.841553
6317.251565	0.101312	0.204063	1790.806885
6317.252489	0.099756	0.204063	1882.981323
6317.253405	0.101213	0.204063	1975.692749
6317.254303	0.102158	0.204063	2067.430908
6317.255229	0.100734	0.204063	2160.710205
6318.285787	0.686807	0.193617	305.628967
6318.286708	0.255165	0.193617	540.635742
6318.287611	0.249833	0.193617	766.234741
6318.288563	0.455603	0.193617	1199.968750
6318.289472	0.099258	0.193617	1290.194092
6318.290379	0.102484	0.193617	1383.147217
6318.291267	0.102257	0.193617	1473.951538
6318.292232	0.100111	0.193617	1570.558716
6318.293127	0.100228	0.193617	1660.263062
6318.294021	0.101854	0.193617	1751.320801
6318.294906	0.100939	0.193617	1840.651611
6318.295831	0.099239	0.193617	1932.448120
6318.296738	0.100085	0.193617	2023.225586
6318.297633	0.101609	0.193617	2114.165527
6319.273429	0.677633	0.204828	302.901978
6319.274324	0.255209	0.204828	531.313843
6319.275284	0.249598	0.204828	770.928284
6319.276202	0.488602	0.204828	1219.465210
6319.277098	0.101272	0.204828	1310.204834
6319.277985	0.101180	0.204828	1399.951904
6319.278918	0.100074	0.204828	1493.321411
6319.279821	0.100668	0.204828	1584.224365
6319.280720	0.101613	0.204828	1675.574097
6319.281645	0.099983	0.204828	1768.058350
6319.282562	0.099375	0.204828	1859.185181
6319.283467	0.100646	0.204828	1950.269531
6319.284361	0.101276	0.204828	2040.809937
6319.285306	0.100001	0.204828	2135.311035
6320.322573	0.715565	0.186930	361.360443
6320.323484	0.254952	0.186930	593.622070
6320.324406	0.248408	0.186930	822.654419
6320.325317	0.476188	0.186930	1256.461426
6320.326269	0.099877	0.186930	1351.544067
6320.327178	0.102198	0.186930	1444.442505
6320.328105	0.102184	0.186930	1539.166870
6320.328998	0.101466	0.186930	1629.776123
6320.329964	0.100792	0.186930	1727.141479
6320.330860	0.101528	0.186930	1818.110840
6320.331747	0.102125	0.186930	1908.695923
6320.332693	0.099833	0.186930	2003.137695
6320.333597	0.102030	0.186930	2095.372803
6320.334503	0.100997	0.186930	2186.876465
6321.307594	0.723263	0.211757	318.958954
6321.308567	0.255026	0.211757	567.098877
6321.309480	0.248818	0.211757	794.270020
6321.310386	0.481816	0.211757	1230.795654
6321.311272	0.100682	0.211757	1320.000244
6321.312231	0.099921	0.211757	1415.824097
6321.313144	0.100854	0.211757	1507.904297
6321.314043	0.101587	0.211757	1599.230957
6321.314975	0.100063	0.211757	1692.490112
6321.315877	0.099430	0.211757	1782.175903
6321.316776	0.102158	0.211757	1874.016113
6321.317661	0.100587	0.211757	1963.035767
6321.318616	0.099353	0.211757	2057.917969
6321.319512	0.099800	0.211757	2147.338623
6322.358726	0.728306	0.184477	316.084686
6322.359678	0.255502	0.184477	559.322327
6322.360605	0.249507	0.184477	790.615173
6322.361539	0.482241	0.184477	1241.028442
6322.362427	0.100565	0.184477	1330.330322
6322.363387	0.101726	0.184477	1427.987305
6322.364309	0.100756	0.184477	1520.884033
6322.365200	0.102224	0.184477	1611.965698
6322.366138	0.101547	0.184477	1707.216431
6322.367039	0.101195	0.184477	1798.393188
6322.367966	0.101646	0.184477	1892.618530
6322.368861	0.101290	0.184477	1983.273315
6322.369804	0.100975	0.184477	2078.493164
6322.370712	0.101664	0.184477	2170.803955
6323.343314	0.720549	0.218802	319.203369
6323.344208	0.255161	0.218802	547.317444
6323.345171	0.249697	0.218802	787.775879
6323.346102	0.438442	0.218802	1195.965698
6323.346990	0.100411	0.218802	1285.130981
6323.347914	0.100470	0.218802	1377.965210
6323.348835	0.099840	0.218802	1469.917969
6323.349737	0.101865	0.218802	1561.800415
6323.350636	0.101990	0.218802	1653.489258
6323.351572	0.099694	0.218802	1746.802490
6323.352479	0.099690	0.218802	1837.221313
6323.353376	0.102067	0.218802	1928.775146
6323.354265	0.100430	0.218802	2018.057129
6323.355218	0.099448	0.218802	2112.831299
6324.394980	0.659246	0.187982	297.979004
6324.395902	0.255004	0.187982	533.092407
6324.396811	0.249437	0.187982	759.830872
6324.397721	0.424296	0.187982	1145.939941
6324.398662	0.099082	0.187982	1239.176147
6324.399565	0.101100	0.187982	1330.469360
6324.400461	0.101763	0.187982	1421.648682
6324.401398	0.100089	0.187982	1515.432129
6324.402302	0.099657	0.187982	1605.522095
6324.403209	0.101873	0.187982	1697.920532
6324.404095	0.101136	0.187982	1787.527466
6324.405049	0.099679	0.187982	1882.621216
6324.405947	0.101199	0.187982	1973.497681
6324.406846	0.102330	0.187982	2065.492676
6325.378057	0.620585	0.216317	311.533539
6325.378971	0.255542	0.216317	545.098877
6325.379877	0.249119	0.216317	770.800354
6325.380774	0.480524	0.216317	1201.830078
6325.381722	0.099133	0.216317	1295.808472
6325.382618	0.101034	0.216317	1386.334839
6325.383513	0.101986	0.216317	1477.612427
6325.384443	0.101667	0.216317	1572.163208
6325.385356	0.099587	0.216317	1663.086548
6325.386266	0.101298	0.216317	1755.267334
6325.387164	0.102308	0.216317	1847.140259
6325.388099	0.099584	0.216317	1940.251099
6325.388998	0.100074	0.216317	2030.218018
6325.389896	0.101719	0.216317	2121.561523
6326.430156	0.714723	0.198516	314.478058
6326.431129	0.254978	0.198516	562.571655
6326.432025	0.249218	0.198516	785.870544
6326.432941	0.492521	0.198516	1237.019531
6326.433831	0.101323	0.198516	1327.197266
6326.434774	0.099979	0.198516	1421.477661
6326.435678	0.100657	0.198516	1512.471313
6326.436587	0.103041	0.198516	1606.135376
6326.437478	0.101060	0.198516	1696.179443
6326.438430	0.099789	0.198516	1791.178345
6326.439341	0.101558	0.198516	1883.697388
6326.440233	0.101807	0.198516	1974.508911
6326.441170	0.099833	0.198516	2068.052246
6326.442072	0.099500	0.198516	2157.800781
6327.412695	0.673019	0.206512	303.531494
6327.413599	0.255417	0.206512	534.428894
6327.414501	0.250184	0.206512	760.095154
6327.415456	0.489529	0.206512	1227.595215
6327.416353	0.102319	0.206512	1319.375610
6327.417239	0.101587	0.206512	1409.381592
6327.418186	0.100404	0.206512	1504.464233
6327.419093	0.100957	0.206512	1596.032227
6327.420001	0.102220	0.206512	1688.848389
6327.420892	0.101298	0.206512	1779.104614
6327.421832	0.099598	0.206512	1872.727051
6327.422749	0.101693	0.206512	1965.979614
6327.423646	0.101646	0.206512	2057.155518
6327.424532	0.100323	0.206512	2146.042236
6328.463302	0.728390	0.198350	317.578003
6328.464263	0.255139	0.198350	562.766724
6328.465183	0.249357	0.198350	792.174866
6328.466098	0.492429	0.198350	1242.747559
6328.466987	0.101671	0.198350	1333.133179
6328.467938	0.099946	0.198350	1428.182129
6328.468842	0.100869	0.198350	1519.367798
6328.469746	0.101971	0.198350	1611.549927
6328.470635	0.101147	0.198350	1701.469971
6328.471576	0.099851	0.198350	1795.429810
6328.472487	0.101312	0.198350	1887.725220
6328.473383	0.101583	0.198350	1978.743774
6328.474314	0.100104	0.198350	2071.940430
6328.475219	0.099760	0.198350	2162.222900
6329.447369	0.716949	0.197871	311.873016
6329.448322	0.255227	0.197871	555.104370
6329.449235	0.249309	0.197871	782.723572
6329.450168	0.474873	0.197871	1225.780151
6329.451053	0.102715	0.197871	1316.682739
6329.452005	0.100276	0.197871	1412.145386
6329.452906	0.102166	0.197871	1504.196533
6329.453828	0.102198	0.197871	1598.423584
6329.454715	0.100858	0.197871	1687.884766
6329.455662	0.100726	0.197871	1783.272583
6329.456564	0.101906	0.197871	1875.191406
6329.457455	0.101700	0.197871	1965.806519
6329.458388	0.100221	0.197871	2059.312744
6329.459301	0.100898	0.197871	2151.433105
6330.496972	0.720568	0.193255	314.888062
6330.497933	0.255267	0.193255	560.199951
6330.498853	0.249060	0.193255	789.335205
6330.499760	0.493590	0.193255	1237.021484
6330.500688	0.100144	0.193255	1329.955200
6330.501590	0.099719	0.193255	1419.901978
6330.502487	0.101898	0.193255	1511.304687
6330.503375	0.102250	0.193255	1602.102417
6330.504317	0.099990	0.193255	1696.293213
6330.505210	0.100298	0.193255	1785.859253
6330.506115	0.102382	0.193255	1878.514648
6330.507003	0.100756	0.193255	1967.985596
6330.507945	0.099514	0.193255	2061.728027
6330.508851	0.101316	0.193255	2153.520264
6331.482587	0.715261	0.197577	319.721771
6331.483483	0.254857	0.197577	548.073792
6331.484442	0.249313	0.197577	787.164734
6331.485371	0.465568	0.197577	1219.677002
6331.486263	0.102290	0.197577	1310.919678
6331.487190	0.100719	0.197577	1404.286133
6331.488099	0.100133	0.197577	1495.307129
6331.489005	0.102074	0.197577	1587.786133
6331.489903	0.101572	0.197577	1678.998047
6331.490829	0.099946	0.197577	1771.548340
6331.491728	0.100155	0.197577	1861.587646
6331.492624	0.101517	0.197577	1952.547119
6331.493515	0.101254	0.197577	2042.764160
6331.494460	0.099470	0.197577	2136.763428
6332.530119	0.710262	0.189424	310.384674
6332.531084	0.255590	0.189424	557.028625
6332.532008	0.249199	0.189424	787.288696
6332.532910	0.493594	0.189424	1232.510254
6332.533866	0.099760	0.189424	1327.880371
6332.534775	0.099701	0.189424	1418.508545
6332.535670	0.101283	0.189424	1509.156738
6332.536562	0.102275	0.189424	1600.386353
6332.537501	0.100009	0.189424	1694.294434
6332.538405	0.100291	0.189424	1784.957031
6332.539307	0.101814	0.189424	1876.793213
6332.540195	0.101224	0.189424	1966.680420
6332.541135	0.099573	0.189424	2060.278809
6332.542045	0.100679	0.189424	2151.896484
6333.518301	0.672978	0.204393	301.494354
6333.519207	0.255055	0.204393	532.574158
6333.520103	0.249642	0.204393	756.253662
6333.521076	0.484673	0.204393	1227.840332
6333.521988	0.102037	0.204393	1320.898437
6333.522877	0.102814	0.204393	1412.299805
6333.523820	0.100609	0.204393	1507.174194
6333.524727	0.100298	0.204393	1598.144287
6333.525632	0.102451	0.204393	1690.862549
6333.526523	0.102015	0.204393	1781.758301
6333.527480	0.099807	0.204393	1877.273682
6333.528394	0.100587	0.204393	1969.210327
6333.529290	0.101459	0.204393	2060.117432
6333.530209	0.100016	0.204393	2152.031982
6334.562265	0.701045	0.197835	311.964996
6334.563162	0.255157	0.197835	540.841248
6334.564115	0.249489	0.197835	778.603821
6334.565048	0.487474	0.197835	1233.417358
6334.565944	0.101656	0.197835	1324.501587
6334.566873	0.100704	0.197835	1418.055908
6334.567778	0.100038	0.197835	1508.590210
6334.568682	0.101653	0.197835	1600.484375
6334.569574	0.101862	0.197835	1691.344849
6334.570511	0.099613	0.197835	1784.682251
6334.571408	0.099994	0.197835	1874.376831
6334.572304	0.101920	0.197835	1965.697266
6334.573191	0.100701	0.197835	2055.018799
6334.574129	0.099485	0.197835	2148.335693
6335.554004	0.672894	0.210174	301.456635
6335.554926	0.255227	0.210174	536.776001
6335.555840	0.249807	0.210174	765.099731
6335.556795	0.445682	0.210174	1190.726440
6335.557692	0.099470	0.210174	1279.951172
6335.558608	0.102048	0.210174	1373.427490
6335.559500	0.102356	0.210174	1464.729004
6335.560430	0.100071	0.210174	1557.794800
6335.561335	0.100144	0.210174	1648.425171
6335.562231	0.103403	0.210174	1741.074585
6335.563121	0.100265	0.210174	1830.310303
6335.564067	0.099441	0.210174	1924.381348
6335.564973	0.100931	0.210174	2015.825195
6335.565871	0.101821	0.210174	2107.260742
6336.595917	0.714316	0.203293	314.299225
6336.596882	0.255278	0.203293	560.642822
6336.597790	0.249331	0.203293	787.035400
6336.598697	0.484109	0.203293	1226.122070
6336.599587	0.100430	0.203293	1315.504517
6336.600540	0.099829	0.203293	1410.641602
6336.601454	0.100869	0.203293	1502.835937
6336.602350	0.101495	0.203293	1593.775757
6336.603270	0.100638	0.203293	1686.363159
6336.604180	0.099924	0.203293	1777.294312
6336.605088	0.101481	0.203293	1869.438843
6336.605978	0.101276	0.203293	1959.574097
6336.606915	0.100199	0.203293	2053.460449
6336.607813	0.099650	0.203293	2142.945801
6337.592274	0.714803	0.217703	313.798706
6337.593217	0.255176	0.217703	554.429443
6337.594131	0.249628	0.217703	782.589172
6337.595057	0.464410	0.217703	1212.633179
6337.595942	0.102554	0.217703	1303.393188
6337.596886	0.100118	0.217703	1397.904907
6337.597802	0.100433	0.217703	1489.901855
6337.598703	0.101953	0.217703	1581.761597
6337.599590	0.101440	0.217703	1671.739258
6337.600534	0.099456	0.217703	1765.625366
6337.601434	0.100642	0.217703	1856.203247
6337.602330	0.101349	0.217703	1947.011841
6337.603257	0.100400	0.217703	2040.083008
6337.604162	0.099382	0.217703	2130.023926
6338.628567	0.715569	0.203877	321.290405
6338.629460	0.255143	0.203877	549.132935
6338.630427	0.249708	0.203877	790.600830
6338.631354	0.459221	0.203877	1216.298828
6338.632243	0.100796	0.203877	1305.906372
6338.633181	0.100609	0.203877	1400.277710
6338.634086	0.100042	0.203877	1490.815308
6338.634988	0.101733	0.203877	1582.578857
6338.635875	0.102645	0.203877	1673.625244
6338.636816	0.099683	0.203877	1767.426636
6338.637714	0.099895	0.203877	1857.132324
6338.638611	0.101550	0.203877	1948.222900
6338.639501	0.100195	0.203877	2037.396729
6338.640450	0.099591	0.203877	2131.908691
6339.631057	0.686664	0.220277	305.565399
6339.631965	0.255337	0.220277	537.411316
6339.632869	0.249965	0.220277	763.379272
6339.633828	0.486398	0.220277	1229.834717
6339.634739	0.100316	0.220277	1321.222778
6339.635633	0.102034	0.220277	1412.440918
6339.636579	0.100653	0.220277	1507.658691
6339.637481	0.100049	0.220277	1597.902710
6339.638384	0.102030	0.220277	1690.035889
6339.639275	0.101100	0.220277	1780.115845
6339.640216	0.099745	0.220277	1873.975830
6339.641124	0.100675	0.220277	1965.388794
6339.642026	0.102634	0.220277	2057.964844
6339.642940	0.100573	0.220277	2149.888184
6340.661708	0.716550	0.205360	313.849030
6340.662603	0.254447	0.205360	541.579102
6340.663574	0.249272	0.205360	783.622681
6340.664505	0.479220	0.205360	1229.776489
6340.665406	0.101309	0.205360	1321.055542
6340.666338	0.100503	0.205360	1414.724243
6340.667241	0.100001	0.205360	1505.025391
6340.668144	0.101667	0.205360	1596.831177
6340.669032	0.101514	0.205360	1686.975342
6340.669978	0.099646	0.205360	1781.240479
6340.670879	0.099727	0.205360	1871.094116
6340.671781	0.102891	0.205360	1963.901489
6340.672675	0.100730	0.205360	2053.954102
6340.673618	0.099587	0.205360	2147.864990
6341.669879	0.604332	0.218593	285.244843
6341.670788	0.255381	0.218593	517.386047
6341.671699	0.249540	0.218593	744.716797
6341.672598	0.480692	0.218593	1176.859009
6341.673556	0.099653	0.218593	1272.326904
6341.674462	0.102583	0.218593	1365.267090
6341.675357	0.102378	0.218593	1456.895386
6341.676305	0.100536	0.218593	1552.203369
6341.677204	0.099697	0.218593	1641.831177
6341.678097	0.102129	0.218593	1733.032349
6341.678983	0.102008	0.218593	1823.411499
6341.679923	0.099287	0.218593	1916.741333
6341.680826	0.099910	0.218593	2006.959717
6341.681727	0.102107	0.218593	2098.958008
6342.692873	0.704073	0.207076	355.557098
6342.693786	0.255773	0.207076	589.077576
6342.694685	0.249364	0.207076	813.255859
6342.695584	0.488895	0.207076	1252.772705
6342.696545	0.099313	0.207076	1348.212280
6342.697446	0.101477	0.207076	1439.643066
6342.698343	0.101935	0.207076	1531.078613
6342.699254	0.100353	0.207076	1622.500000
6342.700186	0.099851	0.207076	1715.561157
6342.701093	0.100327	0.207076	1806.557861
6342.701991	0.101554	0.207076	1897.753296
6342.702924	0.100060	0.207076	1991.109131
6342.703826	0.099485	0.207076	2080.844482
6342.704729	0.102649	0.207076	2173.536377
6343.707608	0.687466	0.214000	310.047089
6343.708508	0.255168	0.214000	539.698730
6343.709458	0.249547	0.214000	776.768494
6343.710394	0.483527	0.214000	1229.349365
6343.711298	0.101726	0.214000	1321.309692
6343.712190	0.101613	0.214000	1411.948120
6343.713141	0.100027	0.214000	1507.073608
6343.714046	0.100463	0.214000	1597.992310
6343.714945	0.101664	0.214000	1689.388062
6343.715867	0.100455	0.214000	1782.007812
6343.716791	0.099503	0.214000	1873.948730
6343.717694	0.100221	0.214000	1964.448242
6343.718588	0.100979	0.214000	2054.723389
6343.719509	0.099675	0.214000	2146.524414
6344.722412	0.715009	0.204107	333.908997
6344.723357	0.255630	0.204107	575.479248
6344.724281	0.248657	0.204107	805.238525
6344.725180	0.478748	0.204107	1235.632568
6344.726129	0.099880	0.204107	1330.419067
6344.727028	0.100199	0.204107	1420.497925
6344.727922	0.102491	0.204107	1512.125244
6344.728815	0.101261	0.204107	1602.551270
6344.729748	0.099774	0.204107	1695.640625
6344.730654	0.100133	0.204107	1786.361206
6344.731549	0.101624	0.204107	1877.314209
6344.732470	0.100020	0.204107	1969.432251
6344.733383	0.099298	0.204107	2060.091309
6344.734290	0.101744	0.204107	2152.373535
6345.744346	0.714598	0.209771	320.140076
6345.745240	0.254637	0.209771	547.785950
6345.746201	0.249071	0.209771	787.143188
6345.747130	0.475898	0.209771	1229.252808
6345.748033	0.101528	0.209771	1320.932861
6345.748939	0.100726	0.209771	1412.190918
6345.749878	0.099888	0.209771	1505.985474
6345.750786	0.101550	0.209771	1598.193115
6345.751680	0.102323	0.209771	1689.669922
6345.752623	0.100118	0.209771	1784.081543
6345.753532	0.099774	0.209771	1874.776245
6345.754433	0.101180	0.209771	1965.939819
6345.755324	0.101843	0.209771	2056.682129
6345.756261	0.099551	0.209771	2149.961182
6346.755012	0.717730	0.198637	310.776886
6346.755978	0.255487	0.198637	557.577393
6346.756889	0.249624	0.198637	784.984863
6346.757801	0.492711	0.198637	1234.337402
6346.758689	0.100052	0.198637	1323.183960
6346.759642	0.100195	0.198637	1418.670044
6346.760536	0.101667	0.198637	1509.560791
6346.761439	0.101499	0.198637	1601.214355
6346.762378	0.100734	0.198637	1695.803223
6346.763283	0.099529	0.198637	1785.876831
6346.764186	0.101730	0.198637	1877.738770
6346.765081	0.102667	0.198637	1969.625977
6346.766031	0.099243	0.198637	2063.906982
6346.766931	0.099346	0.198637	2153.318115
6347.781066	0.720037	0.200929	316.096069
6347.781959	0.254967	0.200929	543.781677
6347.782914	0.249705	0.200929	782.249573
6347.783845	0.487401	0.200929	1236.020020
6347.784737	0.101415	0.200929	1326.482056
6347.785674	0.100551	0.200929	1420.697876
6347.786583	0.100162	0.200929	1511.745483
6347.787484	0.103429	0.200929	1604.934937
6347.788372	0.102202	0.200929	1695.690430
6347.789308	0.099932	0.200929	1789.226440
6347.790209	0.100463	0.200929	1879.743286
6347.791105	0.102147	0.200929	1971.267212
6347.791989	0.101052	0.200929	2060.597412
6347.792926	0.099379	0.200929	2153.715332
6348.788178	0.713961	0.193218	315.570831
6348.789122	0.255648	0.193218	556.902710
6348.790038	0.249540	0.193218	785.481201
6348.790950	0.493704	0.193218	1235.738892
6348.791839	0.100525	0.193218	1325.105469
6348.792808	0.100221	0.193218	1422.219604
6348.793717	0.101206	0.193218	1514.215942
6348.794610	0.101785	0.193218	1605.109619
6348.795548	0.100338	0.193218	1699.226807
6348.796458	0.099595	0.193218	1789.858032
6348.797355	0.101525	0.193218	1880.925659
6348.798244	0.102067	0.193218	1971.662964
6348.799164	0.099016	0.193218	2062.757812
6348.800069	0.100005	0.193218	2153.262207
6349.817292	0.713932	0.197932	314.843964
6349.818188	0.254586	0.197932	542.953186
6349.819157	0.249097	0.197932	784.327881
6349.820090	0.484819	0.197932	1236.664307
6349.820988	0.102067	0.197932	1328.320190
6349.821900	0.101224	0.197932	1420.636841
6349.822818	0.100258	0.197932	1512.673340
6349.823727	0.102418	0.197932	1605.771484
6349.824616	0.102166	0.197932	1696.596680
6349.825553	0.100045	0.197932	1790.338989
6349.826453	0.099888	0.197932	1880.237915
6349.827355	0.102843	0.197932	1973.002319
6349.828243	0.100770	0.197932	2062.486328
6349.829197	0.099269	0.197932	2157.188721
6350.823384	0.700668	0.198048	313.198486
6350.824288	0.254923	0.198048	543.648987
6350.825230	0.249408	0.198048	778.591309
6350.826156	0.485138	0.198048	1227.828979
6350.827065	0.101766	0.198048	1320.334595
6350.827958	0.101642	0.198048	1411.100708
6350.828902	0.100042	0.198048	1505.539917
6350.829802	0.100214	0.198048	1595.732178
6350.830697	0.103510	0.198048	1688.373169
6350.831587	0.100646	0.198048	1777.947876
6350.832521	0.099357	0.198048	1870.747070
6350.833434	0.100096	0.198048	1962.135132
6350.834333	0.100920	0.198048	2052.862549
6350.835268	0.100118	0.198048	2146.473145
6351.855057	0.705289	0.198411	305.390259
6351.856000	0.255143	0.198411	545.989990
6351.856945	0.248983	0.198411	781.279053
6351.857863	0.475543	0.198411	1217.827637
6351.858753	0.102034	0.198411	1308.637573
6351.859668	0.101821	0.198411	1401.804077
6351.860608	0.102067	0.198411	1497.746704
6351.861533	0.101979	0.198411	1592.077026
6351.862424	0.101008	0.198411	1682.075439
6351.863378	0.100433	0.198411	1777.888916
6351.864276	0.100964	0.198411	1868.554932
6351.865199	0.102118	0.198411	1962.809814
6351.866086	0.100558	0.198411	2052.004639
6351.867024	0.102345	0.198411	2148.004150
6352.857545	0.719839	0.207632	312.410065
6352.858497	0.254839	0.207632	555.016663
6352.859416	0.249064	0.207632	783.906250
6352.860324	0.491396	0.207632	1230.094238
6352.861210	0.101429	0.207632	1319.960693
6352.862152	0.099968	0.207632	1414.130859
6352.863063	0.100723	0.207632	1505.889160
6352.863967	0.101624	0.207632	1597.756836
6352.864863	0.100642	0.207632	1687.932129
6352.865814	0.099536	0.207632	1782.590942
6352.866725	0.100258	0.207632	1873.925537
6352.867629	0.101001	0.207632	1965.230469
6352.868571	0.099781	0.207632	2059.224609
6352.869470	0.099448	0.207632	2148.628662
6353.890771	0.730778	0.204554	323.003723
6353.891666	0.254828	0.204554	551.074707
6353.892623	0.249441	0.204554	789.789673
6353.893524	0.485585	0.204554	1227.301514
6353.894418	0.102272	0.204554	1318.732422
6353.895356	0.101122	0.204554	1413.584717
6353.896270	0.100488	0.204554	1505.431030
6353.897175	0.102400	0.204554	1598.102905
6353.898063	0.101191	0.204554	1687.960937
6353.899012	0.099620	0.204554	1782.500610
6353.899920	0.100781	0.204554	1874.010010
6353.900814	0.102385	0.204554	1965.542480
6353.901699	0.101594	0.204554	2055.453369
6353.902639	0.099393	0.204554	2148.883057
6354.892239	0.691952	0.210979	307.226624
6354.893156	0.254780	0.210979	540.860107
6354.894052	0.249851	0.210979	764.726685
6354.895019	0.484307	0.210979	1233.051270
6354.895911	0.099181	0.210979	1321.520630
6354.896810	0.101393	0.210979	1412.672729
6354.897694	0.101539	0.210979	1502.433472
6354.898628	0.099679	0.210979	1595.533569
6354.899527	0.099965	0.210979	1685.401733
6354.900434	0.101492	0.210979	1777.454712
6354.901326	0.100818	0.210979	1867.384277
6354.902268	0.099496	0.210979	1961.109375
6354.903167	0.101221	0.210979	2052.106689
6354.904059	0.101646	0.210979	2142.774414
6355.925532	0.537393	0.206749	277.294556
6355.926447	0.255978	0.206749	511.514221
6355.927348	0.249382	0.206749	736.207703
6355.928246	0.487720	0.206749	1174.179932
6355.929195	0.099327	0.206749	1268.441650
6355.930091	0.101759	0.206749	1359.617798
6355.930981	0.101982	0.206749	1450.382202
6355.931914	0.100913	0.206749	1544.534058
6355.932828	0.100111	0.206749	1636.035645
6355.933735	0.101169	0.206749	1727.796387
6355.934624	0.101023	0.206749	1817.605835
6355.935571	0.099386	0.206749	1911.724365
6355.936474	0.101726	0.206749	2003.583008
6355.937377	0.101085	0.206749	2094.863037
6356.926422	0.686547	0.208997	308.259430
6356.927316	0.254539	0.208997	535.816895
6356.928259	0.249185	0.208997	770.797974
6356.929190	0.493557	0.208997	1230.299683
6356.930090	0.100895	0.208997	1321.104980
6356.930978	0.101829	0.208997	1411.528809
6356.931940	0.099851	0.208997	1507.585571
6356.932848	0.100389	0.208997	1598.739136
6356.933745	0.102345	0.208997	1690.542603
6356.934671	0.101338	0.208997	1784.381470
6356.935574	0.099602	0.208997	1874.322144
6356.936471	0.102400	0.208997	1966.174805
6356.937362	0.101957	0.208997	2057.018311
6356.938299	0.099503	0.208997	2150.252686
6357.959634	0.691384	0.207249	309.048798
6357.960532	0.254561	0.207249	537.644165
6357.961465	0.248961	0.207249	769.924927
6357.962391	0.484709	0.207249	1218.765869
6357.963295	0.101213	0.207249	1310.262817
6357.964182	0.101561	0.207249	1400.347656
6357.965138	0.099829	0.207249	1495.784302
6357.966043	0.100569	0.207249	1586.799072
6357.966940	0.101664	0.207249	1677.991455
6357.967869	0.100221	0.207249	1771.096680
6357.968772	0.099441	0.207249	1860.891846
6357.969679	0.100715	0.207249	1952.240601
6357.970576	0.102770	0.207249	2044.425049
6357.971512	0.099862	0.207249	2137.895996
6358.961605	0.709717	0.205597	308.017090
6358.962576	0.255198	0.205597	555.814087
6358.963493	0.249115	0.205597	784.252563
6358.964431	0.487137	0.205597	1241.187500
6358.965321	0.101320	0.205597	1331.361938
6358.966284	0.101543	0.205597	1429.147827
6358.967200	0.101865	0.205597	1522.456421
6358.968090	0.103070	0.205597	1614.188721
6358.969007	0.100796	0.205597	1706.618530
6358.969925	0.101287	0.205597	1799.599609
6358.970849	0.101232	0.205597	1893.137695
6358.971742	0.101488	0.205597	1983.766479
6358.972686	0.100155	0.205597	2078.312744
6358.973595	0.100825	0.205597	2169.962891
6359.993804	0.728383	0.203156	319.031586
6359.994782	0.255220	0.203156	568.636475
6359.995700	0.248646	0.203156	796.893738
6359.996621	0.481633	0.203156	1240.478027
6359.997530	0.099913	0.203156	1331.299194
6359.998454	0.099880	0.203156	1423.588623
6359.999360	0.101547	0.203156	1515.589844
6360.000252	0.101506	0.203156	1606.133545
6360.001177	0.100261	0.203156	1698.875244
6360.002091	0.099877	0.203156	1790.162598
6360.002991	0.102565	0.203156	1882.470825
6360.003880	0.101737	0.203156	1972.915039
6360.004829	0.099393	0.203156	2067.239258
6360.005737	0.100986	0.203156	2158.934814
6360.996814	0.705615	0.207458	310.470703
6360.997708	0.254832	0.207458	538.290100
6360.998681	0.249229	0.207458	780.789429
6360.999592	0.481575	0.207458	1219.503906
6361.000481	0.101272	0.207458	1309.534668
6361.001422	0.100485	0.207458	1404.090698
6361.002329	0.101353	0.207458	1496.017456
6361.003233	0.101404	0.207458	1587.686523
6361.004124	0.100624	0.207458	1677.342285
6361.005059	0.099719	0.207458	1770.579712
6361.005977	0.101353	0.207458	1863.621338
6361.006880	0.102700	0.207458	1956.359619
6361.007765	0.100811	0.207458	2045.576904
6361.008710	0.099664	0.207458	2139.759766
6362.028507	0.672935	0.201440	301.474670
6362.029409	0.255293	0.201440	531.748962
6362.030305	0.250159	0.201440	755.891174
6362.031277	0.491125	0.201440	1233.265137
6362.032176	0.099496	0.201440	1322.711914
6362.033079	0.102319	0.201440	1415.106323
6362.033982	0.101671	0.201440	1506.915405
6362.034914	0.099792	0.201440	1599.921997
6362.035815	0.100858	0.201440	1690.795166
6362.036705	0.102136	0.201440	1781.696411
6362.037634	0.100236	0.201440	1874.815308
6362.038544	0.099426	0.201440	1965.293213
6362.039445	0.101331	0.201440	2056.592041
6362.040335	0.101063	0.201440	2146.538330
6363.032030	0.672916	0.204937	304.831085
6363.032937	0.255092	0.204937	536.199097
6363.033836	0.249602	0.204937	760.591309
6363.034806	0.486376	0.204937	1232.375732
6363.035721	0.100554	0.204937	1324.382812
6363.036615	0.102693	0.204937	1416.190186
6363.037544	0.100258	0.204937	1509.329468
6363.038458	0.099891	0.204937	1600.630127
6363.039359	0.102931	0.204937	1693.370850
6363.040246	0.101891	0.204937	1783.748047
6363.041188	0.099639	0.204937	1877.607666
6363.042096	0.100865	0.204937	1969.193481
6363.042985	0.102686	0.204937	2060.480957
6363.043903	0.100371	0.204937	2152.621582
6364.063171	0.732100	0.206963	316.267059
6364.064127	0.254861	0.206963	559.914062
6364.065053	0.248961	0.206963	790.452148
6364.065967	0.481425	0.206963	1230.474121
6364.066854	0.100221	0.206963	1319.370117
6364.067796	0.099917	0.206963	1413.491943
6364.068699	0.101371	0.206963	1505.029785
6364.069588	0.102649	0.206963	1596.284668
6364.070505	0.100759	0.206963	1688.680908
6364.071419	0.099803	0.206963	1779.901245
6364.072329	0.101342	0.206963	1872.122070
6364.073233	0.102524	0.206963	1964.804199
6364.074169	0.100236	0.206963	2058.624756
6364.075078	0.099946	0.206963	2149.475830
6365.068239	0.705132	0.207600	310.257996
6365.069141	0.255110	0.207600	540.367065
6365.070036	0.250184	0.207600	764.282043
6365.071020	0.484640	0.207600	1241.167725
6365.071926	0.099950	0.207600	1331.722412
6365.072829	0.102744	0.207600	1424.500366
6365.073745	0.101353	0.207600	1517.339233
6365.074645	0.100038	0.207600	1607.373291
6365.075550	0.102198	0.207600	1699.862915
6365.076443	0.101140	0.207600	1790.181030
6365.077382	0.099664	0.207600	1883.765869
6365.078285	0.099624	0.207600	1973.726318
6365.079186	0.101019	0.207600	2064.744629
6365.080075	0.101085	0.207600	2154.609375
6366.095817	0.714836	0.208989	313.813202
6366.096711	0.254952	0.208989	541.740662
6366.097693	0.248998	0.208989	786.256531
6366.098625	0.487727	0.208989	1240.818115
6366.099528	0.102224	0.208989	1333.126465
6366.100466	0.100928	0.208989	1427.796631
6366.101375	0.099844	0.208989	1518.554565
6366.102281	0.101653	0.208989	1610.651978
6366.103167	0.101664	0.208989	1700.726074
6366.104113	0.099833	0.208989	1795.167847
6366.105017	0.099946	0.208989	1885.519287
6366.105915	0.102144	0.208989	1977.244141
6366.106810	0.100844	0.208989	2067.499023
6366.107763	0.099536	0.208989	2162.356934
6367.104484	0.659286	0.204844	296.678650
6367.105417	0.254956	0.204844	534.552612
6367.106321	0.249338	0.204844	759.954468
6367.107236	0.426833	0.204844	1150.507080
6367.108154	0.100016	0.204844	1242.321655
6367.109059	0.101781	0.204844	1334.433472
6367.109948	0.101938	0.204844	1425.056763
6367.110886	0.100620	0.204844	1519.438477
6367.111799	0.100730	0.204844	1611.404907
6367.112701	0.102953	0.204844	1704.268433
6367.113587	0.101785	0.204844	1794.449707
6367.114530	0.099379	0.204844	1888.163818
6367.115436	0.101250	0.204844	1979.896362
6367.116336	0.100415	0.204844	2070.270020
6368.128465	0.705161	0.208756	314.501862
6368.129363	0.255319	0.208756	543.777954
6368.130307	0.249741	0.208756	779.533691
6368.131225	0.489119	0.208756	1228.544556
6368.132123	0.100389	0.208756	1318.694214
6368.133013	0.101763	0.208756	1409.263062
6368.133968	0.099946	0.208756	1504.711792
6368.134859	0.100042	0.208756	1593.848755
6368.135764	0.101993	0.208756	1686.152832
6368.136654	0.100225	0.208756	1775.352783
6368.137594	0.099749	0.208756	1869.116455
6368.138495	0.100525	0.208756	1959.689453
6368.139395	0.102067	0.208756	2051.549316
6368.140321	0.099851	0.208756	2144.011475
6369.141204	0.691121	0.202919	304.784210
6369.142111	0.255150	0.202919	536.205383
6369.143010	0.250210	0.202919	761.144165
6369.143977	0.460997	0.202919	1206.928589
6369.144882	0.100063	0.202919	1297.486084
6369.145780	0.102488	0.202919	1389.520142
6369.146670	0.101265	0.202919	1479.645630
6369.147610	0.099873	0.202919	1573.526245
6369.148528	0.100825	0.202919	1666.083740
6369.149434	0.101136	0.202919	1757.713379
6369.150325	0.100236	0.202919	1847.023315
6369.151285	0.099459	0.202919	1942.504150
6369.152191	0.100854	0.202919	2033.878296
6369.153078	0.101404	0.202919	2123.823486
6370.160594	0.705322	0.212224	311.047119
6370.161515	0.254817	0.212224	545.733459
6370.162422	0.249302	0.212224	771.850159
6370.163380	0.443551	0.212224	1196.772095
6370.164285	0.099119	0.212224	1286.474487
6370.165187	0.101129	0.212224	1377.692993
6370.166074	0.101312	0.212224	1467.557007
6370.167008	0.099620	0.212224	1560.602417
6370.167911	0.100345	0.212224	1651.214355
6370.168816	0.101752	0.212224	1743.299683
6370.169704	0.101682	0.212224	1833.593384
6370.170648	0.099463	0.212224	1927.486328
6370.171553	0.100221	0.212224	2018.186279
6370.172450	0.102363	0.212224	2110.006104
6371.179470	0.718502	0.200421	316.859467
6371.180419	0.254978	0.200421	558.833618
6371.181331	0.249283	0.200421	786.180115
6371.182241	0.486328	0.200421	1228.738770
6371.183128	0.101927	0.200421	1319.148437
6371.184075	0.100034	0.200421	1413.880859
6371.184992	0.101821	0.200421	1507.250977
6371.185891	0.101990	0.200421	1598.939697
6371.186777	0.101089	0.200421	1688.504395
6371.187717	0.099829	0.200421	1782.343750
6371.188619	0.102290	0.200421	1874.609375
6371.189508	0.101393	0.200421	1964.747559
6371.190434	0.099803	0.200421	2057.165527
6371.191345	0.100671	0.200421	2148.877197
6372.193763	0.686810	0.212200	311.125061
6372.194672	0.255414	0.212200	543.296204
6372.195578	0.250115	0.212200	769.900146
6372.196532	0.458203	0.212200	1207.025879
6372.197432	0.099126	0.212200	1296.239258
6372.198336	0.102616	0.212200	1389.004150
6372.199226	0.102502	0.212200	1480.231323
6372.200176	0.099683	0.212200	1574.929810
6372.201079	0.099730	0.212200	1664.986206
6372.201977	0.101407	0.212200	1756.050049
6372.202862	0.100496	0.212200	1844.988647
6372.203813	0.099404	0.212200	1939.522095
6372.204715	0.100345	0.212200	2030.033691
6372.205612	0.101613	0.212200	2121.180176
6373.218272	0.714770	0.203148	321.646729
6373.219176	0.255114	0.203148	552.269348
6373.220070	0.250140	0.203148	775.894836
6373.221020	0.470273	0.203148	1222.654541
6373.221928	0.100891	0.203148	1314.263672
6373.222851	0.102378	0.203148	1408.758545
6373.223740	0.101576	0.203148	1499.059570
6373.224694	0.101587	0.203148	1595.973511
6373.225596	0.102795	0.203148	1688.694946
6373.226482	0.102407	0.203148	1779.427734
6373.227434	0.100323	0.203148	1874.935669
6373.228345	0.101792	0.203148	1967.668213
6373.229264	0.101389	0.203148	2060.844971
6373.230152	0.100367	0.203148	2149.971191
6374.225866	0.729163	0.218621	320.831543
6374.226845	0.255586	0.218621	571.050171
6374.227760	0.248760	0.218621	798.665344
6374.228669	0.487764	0.218621	1242.042480
6374.229602	0.099657	0.218621	1335.022461
6374.230503	0.100085	0.218621	1425.199463
6374.231399	0.102349	0.218621	1516.903809
6374.232289	0.101741	0.218621	1607.453003
6374.233225	0.099628	0.218621	1700.704468
6374.234131	0.100001	0.218621	1791.305542
6374.235031	0.101492	0.218621	1882.648071
6374.235922	0.100323	0.218621	1972.036255
6374.236883	0.099170	0.218621	2067.338623
6374.237793	0.100408	0.218621	2158.709717
6375.257037	0.715041	0.205521	315.333282
6375.258013	0.255674	0.205521	564.870972
6375.258937	0.249078	0.205521	795.019348
6375.259839	0.483516	0.205521	1231.150391
6375.260755	0.100785	0.205521	1323.469360
6375.261679	0.102363	0.205521	1418.052979
6375.262587	0.102001	0.205521	1510.669678
6375.263500	0.102583	0.205521	1604.328003
6375.264447	0.100635	0.205521	1699.629150
6375.265362	0.100660	0.205521	1791.733398
6375.266288	0.101810	0.205521	1886.009766
6375.267181	0.101301	0.205521	1976.471802
6375.268133	0.100968	0.205521	2072.593262
6375.269058	0.100880	0.205521	2165.907471
6376.257491	0.706538	0.219233	315.822510
6376.258393	0.255084	0.219233	545.908447
6376.259333	0.249767	0.219233	780.689270
6376.260269	0.488990	0.219233	1238.384399
6376.261180	0.100931	0.219233	1330.332886
6376.262072	0.102103	0.219233	1421.409058
6376.263010	0.100543	0.219233	1515.718628
6376.263910	0.100660	0.219233	1606.312988
6376.264806	0.101481	0.219233	1697.239746
6376.265697	0.100701	0.219233	1786.964111
6376.266635	0.099298	0.219233	1880.105713
6376.267546	0.099760	0.219233	1970.986572
6376.268448	0.101708	0.219233	2062.727051
6376.269375	0.099569	0.219233	2155.027588
6377.294804	0.678999	0.203221	303.512573
6377.295704	0.254872	0.203221	532.897217
6377.296601	0.249730	0.203221	756.905212
6377.297578	0.480817	0.203221	1226.663086
6377.298474	0.102074	0.203221	1318.121338
6377.299362	0.101583	0.203221	1408.327271
6377.300301	0.100287	0.203221	1502.496582
6377.301211	0.101675	0.203221	1595.020630
6377.302123	0.101982	0.203221	1688.028564
6377.303022	0.101027	0.203221	1778.851440
6377.303970	0.100020	0.203221	1873.669922
6377.304876	0.101184	0.203221	1965.342651
6377.305769	0.101803	0.203221	2056.252686
6377.306684	0.099998	0.203221	2147.750488
6378.290134	0.686521	0.217827	306.188354
6378.291032	0.254747	0.217827	534.951477
6378.291927	0.250184	0.217827	758.866455
6378.292902	0.492722	0.217827	1239.270508
6378.293805	0.100408	0.217827	1329.938721
6378.294712	0.102122	0.217827	1422.562988
6378.295601	0.101199	0.217827	1512.528687
6378.296537	0.100192	0.217827	1606.308105
6378.297440	0.101041	0.217827	1697.548340
6378.298330	0.101913	0.217827	1788.250732
6378.299260	0.100356	0.217827	1881.582275
6378.300170	0.099360	0.217827	1972.000244
6378.301075	0.101682	0.217827	2064.022461
6378.301967	0.100781	0.217827	2153.919434
6379.332061	0.707029	0.201819	318.162964
6379.332962	0.254989	0.201819	547.908081
6379.333917	0.249269	0.201819	785.959778
6379.334837	0.447140	0.201819	1197.328491
6379.335742	0.100807	0.201819	1288.558716
6379.336644	0.100961	0.201819	1379.625244
6379.337580	0.101257	0.201819	1474.402100
6379.338500	0.100983	0.201819	1567.306152
6379.339394	0.101433	0.201819	1657.987305
6379.340342	0.100056	0.201819	1752.840576
6379.341257	0.101257	0.201819	1845.490967
6379.342181	0.102305	0.201819	1940.020508
6379.343070	0.100404	0.201819	2029.279663
6379.344014	0.100547	0.201819	2124.195801
6380.322776	0.690033	0.216877	306.374634
6380.323687	0.254722	0.216877	538.426086
6380.324593	0.249617	0.216877	764.578796
6380.325523	0.390656	0.216877	1127.888428
6380.326453	0.099415	0.216877	1220.344604
6380.327367	0.101689	0.216877	1313.288818
6380.328266	0.102253	0.216877	1405.214600
6380.329211	0.100540	0.216877	1500.224487
6380.330111	0.099939	0.216877	1590.169556
6380.331011	0.102023	0.216877	1681.989990
6380.331898	0.100862	0.216877	1771.454468
6380.332832	0.099412	0.216877	1864.304932
6380.333744	0.100686	0.216877	1956.130615
6380.334644	0.101799	0.216877	2047.750000
6381.368273	0.719216	0.199873	313.578308
6381.369174	0.254766	0.199873	543.122131
6381.370130	0.249243	0.199873	781.398560
6381.371052	0.484406	0.199873	1228.020508
6381.371982	0.101353	0.199873	1322.278320
6381.372871	0.100759	0.199873	1411.853271
6381.373835	0.101360	0.199873	1509.564209
6381.374736	0.102074	0.199873	1601.532837
6381.375626	0.101730	0.199873	1692.072266
6381.376575	0.100192	0.199873	1787.154175
6381.377486	0.101342	0.199873	1879.476318
6381.378402	0.102004	0.199873	1972.912354
6381.379289	0.102118	0.199873	2063.490967
6381.380219	0.100920	0.199873	2157.346924
6382.357963	0.714056	0.217324	312.756683
6382.358917	0.255040	0.217324	556.065125
6382.359846	0.249100	0.217324	787.479309
6382.360763	0.485837	0.217324	1232.992187
6382.361651	0.100411	0.217324	1322.157471
6382.362618	0.100210	0.217324	1419.060547
6382.363529	0.101019	0.217324	1511.089111
6382.364420	0.102363	0.217324	1602.294800
6382.365344	0.100836	0.217324	1695.467407
6382.366264	0.099631	0.217324	1787.128296
6382.367181	0.102294	0.217324	1880.931641
6382.368076	0.101594	0.217324	1971.858521
6382.369004	0.099218	0.217324	2063.932373
6382.369909	0.099199	0.217324	2153.707764
6383.403989	0.714441	0.200574	317.211761
6383.404884	0.255033	0.200574	545.466248
6383.405858	0.249390	0.200574	788.371765
6383.406780	0.466289	0.200574	1218.290283
6383.407677	0.100529	0.200574	1308.464355
6383.408601	0.100715	0.200574	1401.525269
6383.409509	0.100045	0.200574	1492.366333
6383.410412	0.101492	0.200574	1584.013306
6383.411311	0.101019	0.200574	1674.829590
6383.412250	0.099712	0.200574	1768.459106
6383.413152	0.099675	0.200574	1858.366211
6383.414050	0.101276	0.200574	1949.311768
6383.414935	0.102224	0.200574	2039.780151
6383.415880	0.099346	0.200574	2133.661865
6384.391630	0.704528	0.217719	312.105743
6384.392600	0.255304	0.217719	559.750610
6384.393518	0.248749	0.217719	788.101990
6384.394427	0.479843	0.217719	1224.278809
6384.395371	0.099836	0.217719	1318.524414
6384.396278	0.100111	0.217719	1409.325195
6384.397176	0.103916	0.217719	1502.641724
6384.398063	0.102341	0.217719	1593.418457
6384.399016	0.099800	0.217719	1688.527710
6384.399915	0.100063	0.217719	1778.484741
6384.400817	0.102125	0.217719	1870.601685
6384.401707	0.101005	0.217719	1960.495850
6384.402658	0.099221	0.217719	2054.855225
6384.403572	0.100360	0.217719	2146.584473
6385.439194	0.676945	0.201424	301.917267
6385.440118	0.255341	0.201424	537.851929
6385.441029	0.249814	0.201424	765.432861
6385.441991	0.488236	0.201424	1235.115967
6385.442894	0.099309	0.201424	1324.792114
6385.443795	0.103374	0.201424	1417.932129
6385.444683	0.101741	0.201424	1508.277832
6385.445634	0.100042	0.201424	1603.417358
6385.446538	0.101290	0.201424	1694.983765
6385.447425	0.102528	0.201424	1785.926147
6385.448341	0.100847	0.201424	1878.302124
6385.449267	0.099587	0.201424	1970.520020
6385.450171	0.100668	0.201424	2061.523682
6385.451066	0.101067	0.201424	2151.978516
6386.425336	0.581671	0.214444	280.365509
6386.426251	0.255341	0.214444	514.002136
6386.427161	0.249309	0.214444	740.873413
6386.428063	0.488954	0.214444	1181.909790
6386.429019	0.099525	0.214444	1277.055786
6386.429923	0.100909	0.214444	1368.277954
6386.430821	0.102916	0.214444	1460.696777
6386.431752	0.100437	0.214444	1554.203613
6386.432652	0.099965	0.214444	1644.171753
6386.433550	0.101993	0.214444	1735.761841
6386.434434	0.102455	0.214444	1826.331909
6386.435388	0.099221	0.214444	1920.988892
6386.436284	0.099998	0.214444	2010.586670
6386.437192	0.101682	0.214444	2102.914062
6387.473865	0.724614	0.202161	315.207214
6387.474771	0.255143	0.202161	546.366638
6387.475741	0.249598	0.202161	788.477051
6387.476671	0.483197	0.202161	1237.850342
6387.477571	0.101177	0.202161	1328.909424
6387.478515	0.100188	0.202161	1423.486938
6387.479417	0.100587	0.202161	1514.216553
6387.480321	0.102107	0.202161	1606.521240
6387.481209	0.101316	0.202161	1696.489746
6387.482158	0.099796	0.202161	1791.196289
6387.483068	0.100873	0.202161	1882.990479
6387.483958	0.101276	0.202161	1973.125732
6387.484884	0.100668	0.202161	2066.343994
6387.485799	0.099225	0.202161	2157.134766
6388.459993	0.687125	0.211821	310.580597
6388.460892	0.255256	0.211821	540.056030
6388.461838	0.249741	0.211821	776.311218
6388.462767	0.485493	0.211821	1227.334351
6388.463673	0.102817	0.211821	1320.486938
6388.464563	0.100994	0.211821	1410.371338
6388.465499	0.100177	0.211821	1504.136963
6388.466408	0.101840	0.211821	1596.709106
6388.467303	0.102125	0.211821	1688.111206
6388.468252	0.100792	0.211821	1783.763062
6388.469156	0.099368	0.211821	1873.591431
6388.470058	0.101375	0.211821	1965.031250
6388.470950	0.101316	0.211821	2055.405029
6388.471896	0.099067	0.211821	2149.122803
6389.508085	0.734623	0.204840	353.353546
6389.509000	0.254985	0.204840	586.665161
6389.509902	0.248990	0.204840	811.254578
6389.510803	0.481600	0.204840	1245.176514
6389.511752	0.099507	0.204840	1339.608521
6389.512642	0.100481	0.204840	1429.036621
6389.513545	0.102649	0.204840	1521.728638
6389.514438	0.101986	0.204840	1612.802246
6389.515402	0.099906	0.204840	1709.111572
6389.516314	0.101177	0.204840	1801.384766
6389.517217	0.101810	0.204840	1893.319458
6389.518149	0.100031	0.204840	1986.547852
6389.519047	0.099349	0.204840	2075.763672
6389.519941	0.101781	0.204840	2166.755859
6390.495695	0.691172	0.209581	305.497986
6390.496593	0.255018	0.209581	534.504456
6390.497486	0.250283	0.209581	758.007385
6390.498447	0.498838	0.209581	1237.390625
6390.499355	0.100228	0.209581	1328.397949
6390.500250	0.101609	0.209581	1419.337891
6390.501159	0.101191	0.209581	1511.320923
6390.502080	0.099910	0.209581	1603.337769
6390.502989	0.102261	0.209581	1696.292725
6390.503879	0.102048	0.209581	1787.115723
6390.504825	0.100126	0.209581	1881.834717
6390.505715	0.099463	0.209581	1970.356689
6390.506617	0.101510	0.209581	2061.918701
6390.507509	0.100499	0.209581	2151.563965
6391.542739	0.695966	0.204546	310.400665
6391.543644	0.255465	0.204546	541.596558
6391.544585	0.250067	0.204546	776.909729
6391.545498	0.490294	0.204546	1224.548340
6391.546393	0.101371	0.204546	1315.275269
6391.547280	0.102828	0.204546	1406.484009
6391.548214	0.100283	0.204546	1500.148560
6391.549114	0.100734	0.204546	1590.808838
6391.550014	0.101986	0.204546	1682.596313
6391.550907	0.101514	0.204546	1773.248047
6391.551868	0.099609	0.204546	1868.972656
6391.552777	0.100895	0.204546	1960.686035
6391.553677	0.101525	0.204546	2052.058105
6391.554606	0.099712	0.204546	2144.690430
6392.530895	0.701517	0.214133	311.473694
6392.531882	0.255795	0.214133	563.943054
6392.532806	0.248859	0.214133	793.888428
6392.533710	0.485270	0.214133	1232.572266
6392.534657	0.099756	0.214133	1327.041016
6392.535556	0.100228	0.214133	1417.146240
6392.536456	0.102737	0.214133	1509.609375
6392.537342	0.101323	0.214133	1599.381714
6392.538267	0.099719	0.214133	1691.621948
6392.539177	0.100510	0.214133	1783.086304
6392.540074	0.101682	0.214133	1874.295166
6392.540989	0.101202	0.214133	1966.895386
6392.541912	0.099346	0.214133	2058.591553
6392.542818	0.101843	0.214133	2150.861572
6393.576409	0.701426	0.203889	311.433044
6393.577308	0.255062	0.203889	540.734009
6393.578203	0.249833	0.203889	764.334351
6393.579188	0.488932	0.203889	1245.932251
6393.580088	0.100719	0.203889	1336.579346
6393.580981	0.102297	0.203889	1427.930908
6393.581916	0.100712	0.203889	1522.096313
6393.582826	0.102092	0.203889	1615.000244
6393.583740	0.102286	0.203889	1708.489990
6393.584640	0.102217	0.203889	1800.485107
6393.585584	0.100060	0.203889	1894.941528
6393.586491	0.101451	0.203889	1986.958008
6393.587414	0.101561	0.203889	2080.698975
6393.588308	0.100236	0.203889	2170.309570
6394.568161	0.664222	0.216841	298.900085
6394.569080	0.255044	0.216841	533.285461
6394.569981	0.249664	0.216841	758.232971
6394.570946	0.434689	0.216841	1177.707520
6394.571841	0.098987	0.216841	1266.300659
6394.572737	0.102385	0.216841	1358.037842
6394.573627	0.101777	0.216841	1448.619629
6394.574567	0.099712	0.216841	1542.348877
6394.575471	0.100173	0.216841	1632.905518
6394.576377	0.101393	0.216841	1724.767456
6394.577268	0.101675	0.216841	1815.359741
6394.578223	0.099470	0.216841	1910.353760
6394.579130	0.101433	0.216841	2002.353638
6394.580021	0.102279	0.216841	2093.484375
6395.610058	0.728137	0.206979	316.011536
6395.611006	0.254993	0.206979	557.744629
6395.611930	0.249075	0.206979	787.889648
6395.612851	0.485504	0.206979	1235.038940
6395.613740	0.101393	0.206979	1325.177124
6395.614689	0.100140	0.206979	1420.210327
6395.615595	0.101279	0.206979	1511.969360
6395.616487	0.102217	0.206979	1603.146729
6395.617417	0.100638	0.206979	1696.740479
6395.618319	0.099877	0.206979	1786.829224
6395.619219	0.101184	0.206979	1877.894897
6395.620119	0.102268	0.206979	1969.936157
6395.621048	0.099357	0.206979	2062.238525
6395.621959	0.099540	0.206979	2152.919189
6396.604879	0.690992	0.219016	303.345673
6396.605798	0.255132	0.219016	537.811829
6396.606704	0.249902	0.219016	764.223328
6396.607671	0.490071	0.219016	1238.121826
6396.608572	0.099287	0.219016	1327.579468
6396.609468	0.102499	0.219016	1419.418335
6396.610354	0.101902	0.219016	1509.703369
6396.611291	0.099792	0.219016	1603.208984
6396.612201	0.100613	0.219016	1694.766602
6396.613100	0.102729	0.219016	1787.120361
6396.614025	0.100100	0.219016	1879.712891
6396.614928	0.099606	0.219016	1969.656860
6396.615827	0.101041	0.219016	2060.492920
6396.616715	0.101624	0.219016	2150.734619
6397.641690	0.672964	0.205477	302.160767
6397.642587	0.255264	0.205477	531.132263
6397.643481	0.250078	0.205477	754.702087
6397.644445	0.494630	0.205477	1231.525513
6397.645348	0.099943	0.205477	1321.773682
6397.646244	0.102407	0.205477	1413.530518
6397.647165	0.101693	0.205477	1507.189941
6397.648069	0.099950	0.205477	1597.544678
6397.648983	0.101309	0.205477	1690.140747
6397.649875	0.102158	0.205477	1781.265869
6397.650813	0.100616	0.205477	1875.644043
6397.651717	0.099906	0.205477	1965.959106
6397.652619	0.101550	0.205477	2057.557373
6397.653514	0.100107	0.205477	2147.153564
6398.642145	0.677534	0.219370	307.600525
6398.643043	0.254971	0.219370	536.564209
6398.643935	0.249763	0.219370	759.352966
6398.644908	0.448356	0.219370	1195.603027
6398.645807	0.101550	0.219370	1286.896729
6398.646699	0.102594	0.219370	1378.410522
6398.647637	0.100481	0.219370	1472.661621
6398.648548	0.101008	0.219370	1564.680176
6398.649448	0.101550	0.219370	1656.075439
6398.650341	0.101865	0.219370	1747.041138
6398.651301	0.099730	0.219370	1842.782104
6398.652206	0.102034	0.219370	1935.122559
6398.653106	0.102814	0.219370	2027.654907
6398.653995	0.100924	0.219370	2117.376465
6399.674336	0.678318	0.209384	304.564697
6399.675247	0.255066	0.209384	536.929749
6399.676151	0.249851	0.209384	762.795105
6399.677107	0.472119	0.209384	1214.140991
6399.678009	0.098833	0.209384	1303.288330
6399.678914	0.101642	0.209384	1395.274170
6399.679806	0.101744	0.209384	1486.030151
6399.680766	0.100020	0.209384	1582.048950
6399.681665	0.100547	0.209384	1672.440552
6399.682567	0.101624	0.209384	1764.104980
6399.683455	0.101323	0.209384	1854.080078
6399.684403	0.099719	0.209384	1948.613892
6399.685309	0.101777	0.209384	2040.824219
6399.686207	0.101814	0.209384	2132.253174
6400.679883	0.704630	0.217477	307.923370
6400.680843	0.255029	0.217477	552.751465
6400.681764	0.249163	0.217477	782.230225
6400.682670	0.486134	0.217477	1222.667725
6400.683562	0.101213	0.217477	1312.950073
6400.684512	0.100221	0.217477	1408.159912
6400.685406	0.101715	0.217477	1499.093262
6400.686322	0.102448	0.217477	1592.935181
6400.687216	0.101349	0.217477	1683.541016
6400.688162	0.099668	0.217477	1777.826904
6400.689064	0.101356	0.217477	1869.250244
6400.689952	0.101089	0.217477	1959.017212
6400.690890	0.099771	0.217477	2052.602051
6400.691796	0.099529	0.217477	2142.775146
6401.705946	0.700594	0.208675	313.866333
6401.706920	0.254843	0.208675	562.082947
6401.707827	0.248694	0.208675	787.648254
6401.708738	0.471625	0.208675	1217.298340
6401.709627	0.100942	0.208675	1307.036133
6401.710575	0.100082	0.208675	1401.913696
6401.711478	0.100719	0.208675	1492.862915
6401.712381	0.101807	0.208675	1584.794312
6401.713269	0.100697	0.208675	1674.213257
6401.714224	0.099756	0.208675	1769.480103
6401.715132	0.100488	0.208675	1860.723511
6401.716025	0.101653	0.208675	1951.499512
6401.716963	0.099943	0.208675	2045.245728
6401.717863	0.099628	0.208675	2134.910645
6402.717656	0.672784	0.213743	297.370697
6402.718563	0.255271	0.213743	528.901489
6402.719464	0.250038	0.213743	754.185547
6402.720434	0.483223	0.213743	1222.911499
6402.721331	0.099459	0.213743	1312.126465
6402.722227	0.101287	0.213743	1402.879272
6402.723113	0.100950	0.213743	1492.320679
6402.724057	0.099814	0.213743	1586.545532
6402.724961	0.100496	0.213743	1677.393555
6402.725863	0.101437	0.213743	1768.889526
6402.726788	0.099730	0.213743	1861.140015
6402.727698	0.099056	0.213743	1951.281372
6402.728602	0.102074	0.213743	2043.556274
6402.729491	0.100865	0.213743	2133.225586
6403.737565	0.692732	0.209618	308.265717
6403.738476	0.255048	0.209618	540.614075
6403.739372	0.249939	0.209618	764.559387
6403.740328	0.478634	0.209618	1222.133545
6403.741233	0.099987	0.209618	1312.621338
6403.742142	0.101609	0.209618	1404.983765
6403.743034	0.102037	0.209618	1496.001099
6403.743985	0.099825	0.209618	1590.935059
6403.744891	0.101158	0.209618	1682.584595
6403.745792	0.101602	0.209618	1774.127563
6403.746724	0.100477	0.209618	1867.772461
6403.747621	0.099492	0.209618	1957.016968
6403.748521	0.101415	0.209618	2048.290283
6403.749408	0.101323	0.209618	2138.164062
6404.755412	0.690505	0.215269	306.584351
6404.756311	0.254996	0.215269	535.826050
6404.757252	0.249485	0.215269	770.591309
6404.758182	0.483054	0.215269	1219.831665
6404.759082	0.101206	0.215269	1310.917114
6404.759970	0.101166	0.215269	1400.752319
6404.760913	0.099690	0.215269	1494.759888
6404.761815	0.101975	0.215269	1586.741455
6404.762708	0.101873	0.215269	1677.713623
6404.763627	0.100411	0.215269	1769.991699
6404.764533	0.099961	0.215269	1860.556274
6404.765445	0.101338	0.215269	1952.976440
6404.766334	0.101323	0.215269	2043.052856
6404.767281	0.099500	0.215269	2137.278809
6405.769161	0.728276	0.209714	318.985046
6405.770127	0.255256	0.209714	565.562683
6405.771041	0.249049	0.209714	793.193542
6405.771949	0.485255	0.209714	1233.805176
6405.772835	0.099822	0.209714	1322.247314
6405.773782	0.099957	0.209714	1416.906860
6405.774696	0.101609	0.209714	1509.777344
6405.775594	0.101565	0.209714	1600.982666
6405.776525	0.100173	0.209714	1694.244019
6405.777428	0.099467	0.209714	1784.062256
6405.778331	0.101887	0.209714	1876.066406
6405.779225	0.101063	0.209714	1966.416992
6405.780170	0.099452	0.209714	2060.398926
6405.781070	0.099705	0.209714	2150.133057
6406.792134	0.733509	0.210943	319.810120
6406.793031	0.255007	0.210943	548.551636
6406.793995	0.249448	0.210943	789.019714
6406.794925	0.472082	0.210943	1228.056396
6406.795816	0.100752	0.210943	1317.826416
6406.796742	0.100854	0.210943	1411.217651
6406.797650	0.100514	0.210943	1502.484253
6406.798554	0.102140	0.210943	1594.818726
6406.799442	0.103019	0.210943	1686.299438
6406.800378	0.099866	0.210943	1779.773804
6406.801292	0.102096	0.210943	1873.089478
6406.802186	0.102532	0.210943	1964.752808
6406.803076	0.100946	0.210943	2054.594727
6406.804009	0.099503	0.210943	2147.431152
6407.803349	0.697145	0.208449	306.046539
6407.804270	0.255201	0.208449	541.087036
6407.805181	0.249763	0.208449	768.621338
6407.806107	0.398800	0.208449	1137.910156
6407.807034	0.099203	0.208449	1229.871216
6407.807936	0.100931	0.208449	1320.911377
6407.808835	0.101320	0.208449	1411.997681
6407.809788	0.100107	0.208449	1507.400024
6407.810692	0.099763	0.208449	1597.585937
6407.811591	0.101448	0.208449	1688.787476
6407.812475	0.100107	0.208449	1777.282471
6407.813403	0.099298	0.208449	1869.431152
6407.814313	0.100364	0.208449	1960.762207
6407.815207	0.101510	0.208449	2051.512207
6408.828877	0.716770	0.205525	313.228485
6408.829812	0.254850	0.205525	551.513062
6408.830736	0.249393	0.205525	781.952515
6408.831649	0.487537	0.205525	1227.073486
6408.832537	0.101067	0.205525	1316.820923
6408.833490	0.100203	0.205525	1412.314087
6408.834394	0.101155	0.205525	1503.758057
6408.835290	0.102982	0.205525	1596.030029
6408.836224	0.100605	0.205525	1689.995483
6408.837128	0.099792	0.205525	1780.207886
6408.838022	0.101664	0.205525	1871.095337
6408.838910	0.102770	0.205525	1962.354858
6408.839851	0.099426	0.205525	2055.915039
6408.840755	0.100745	0.205525	2146.988281
6409.836510	0.663073	0.208292	299.045715
6409.837436	0.255103	0.208292	535.270691
6409.838337	0.249602	0.208292	760.162109
6409.839281	0.390696	0.208292	1128.978882
6409.840193	0.099155	0.208292	1219.408447
6409.841102	0.101865	0.208292	1312.003906
6409.841994	0.102898	0.208292	1403.788818
6409.842921	0.100034	0.208292	1496.520508
6409.843829	0.099712	0.208292	1587.058960
6409.844729	0.102008	0.208292	1678.866211
6409.845616	0.101294	0.208292	1768.713989
6409.846565	0.099404	0.208292	1863.048706
6409.847468	0.100525	0.208292	1953.822754
6409.848363	0.101067	0.208292	2044.277588
6410.865612	0.714987	0.208180	315.309113
6410.866584	0.255264	0.208180	563.425415
6410.867496	0.248895	0.208180	790.417908
6410.868399	0.484819	0.208180	1228.209717
6410.869340	0.100093	0.208180	1322.396973
6410.870249	0.100280	0.208180	1413.551025
6410.871161	0.102667	0.208180	1507.183594
6410.872052	0.102180	0.208180	1598.226074
6410.872996	0.099701	0.208180	1692.343750
6410.873903	0.100411	0.208180	1783.416870
6410.874803	0.101982	0.208180	1875.201050
6410.875687	0.100682	0.208180	1964.204224
6410.876621	0.099261	0.208180	2056.914551
6410.877528	0.101700	0.208180	2149.156738
6411.870681	0.691875	0.210480	309.959991
6411.871575	0.254857	0.210480	537.802307
6411.872520	0.249587	0.210480	773.662415
6411.873447	0.482915	0.210480	1221.324707
6411.874347	0.101704	0.210480	1312.858398
6411.875237	0.101766	0.210480	1403.430420
6411.876164	0.099807	0.210480	1495.951660
6411.877063	0.100327	0.210480	1586.145752
6411.877967	0.101085	0.210480	1677.526733
6411.878857	0.101034	0.210480	1767.446899
6411.879799	0.099294	0.210480	1860.982300
6411.880704	0.100990	0.210480	1952.378296
6411.881599	0.101115	0.210480	2042.875732
6411.882535	0.100287	0.210480	2136.744141
6412.900826	0.678724	0.204691	305.425964
6412.901726	0.255205	0.204691	535.110535
6412.902624	0.250243	0.204691	759.828674
6412.903586	0.494528	0.204691	1235.564209
6412.904492	0.101821	0.204691	1327.814331
6412.905414	0.102755	0.204691	1422.554565
6412.906302	0.101722	0.204691	1512.884033
6412.907252	0.100972	0.204691	1608.807129
6412.908144	0.101331	0.204691	1699.193970
6412.909033	0.101202	0.204691	1789.162842
6412.909977	0.100137	0.204691	1883.691895
6412.910872	0.100635	0.204691	1973.760010
6412.911794	0.101265	0.204691	2067.125977
6412.912694	0.100961	0.204691	2157.990723
6413.904842	0.733264	0.212067	317.503387
6413.905793	0.254879	0.212067	559.893433
6413.906712	0.249122	0.212067	788.836853
6413.907628	0.488628	0.212067	1236.420044
6413.908516	0.100587	0.212067	1325.741455
6413.909467	0.099705	0.212067	1420.560547
6413.910378	0.101016	0.212067	1512.585815
6413.911268	0.102004	0.212067	1603.369751
6413.912197	0.100994	0.212067	1697.192871
6413.913112	0.099408	0.212067	1788.151123
6413.914020	0.101627	0.212067	1880.428589
6413.914922	0.101521	0.212067	1972.000488
6413.915857	0.099423	0.212067	2064.960693
6413.916761	0.099294	0.212067	2154.722900
6414.936533	0.700796	0.209791	313.255798
6414.937430	0.254795	0.209791	541.806824
6414.938326	0.249910	0.209791	765.725891
6414.939287	0.493480	0.209791	1239.960449
6414.940198	0.099404	0.209791	1330.517822
6414.941099	0.102136	0.209791	1422.542603
6414.941995	0.101466	0.209791	1513.456177
6414.942930	0.099529	0.209791	1606.515625
6414.943841	0.101290	0.209791	1698.791016
6414.944732	0.101825	0.209791	1789.517090
6414.945674	0.099489	0.209791	1883.235229
6414.946575	0.099313	0.209791	1972.716064
6414.947472	0.101466	0.209791	2063.731201
6414.948362	0.101224	0.209791	2153.820801
6415.940066	0.662721	0.215406	298.887146
6415.940970	0.255029	0.215406	529.433594
6415.941863	0.250280	0.215406	752.933228
6415.942833	0.478367	0.215406	1216.948975
6415.943748	0.100408	0.215406	1308.822021
6415.944640	0.101616	0.215406	1399.463623
6415.945527	0.101155	0.215406	1489.187866
6415.946480	0.099781	0.215406	1584.279663
6415.947386	0.101763	0.215406	1676.476685
6415.948278	0.102177	0.215406	1767.618164
6415.949206	0.100184	0.215406	1860.589233
6415.950107	0.100840	0.215406	1951.445923
6415.951010	0.101763	0.215406	2043.337646
6415.951903	0.101396	0.215406	2133.884766
6416.971718	0.719714	0.209662	314.515167
6416.972695	0.255729	0.209662	564.362183
6416.973611	0.249045	0.209662	792.487793
6416.974515	0.492133	0.209662	1237.375610
6416.975454	0.099873	0.209662	1331.156372
6416.976352	0.099851	0.209662	1420.822632
6416.977253	0.101814	0.209662	1512.557007
6416.978142	0.101711	0.209662	1602.978516
6416.979087	0.099525	0.209662	1697.029785
6416.980001	0.100349	0.209662	1788.748901
6416.980904	0.102081	0.209662	1880.928345
6416.981805	0.101169	0.209662	1972.082031
6416.982753	0.099419	0.209662	2066.331299
6416.983663	0.100913	0.209662	2158.162109
6417.974215	0.719579	0.213416	311.577637
6417.975154	0.254912	0.213416	550.940125
6417.976072	0.249371	0.213416	779.863037
6417.976996	0.465579	0.213416	1210.057617
6417.977892	0.100071	0.213416	1299.721069
6417.978829	0.099899	0.213416	1393.326172
6417.979732	0.100031	0.213416	1483.653687
6417.980632	0.101960	0.213416	1575.418091
6417.981551	0.101627	0.213416	1668.813477
6417.982441	0.102067	0.213416	1759.652832
6417.983392	0.100756	0.213416	1855.471436
6417.984288	0.101389	0.213416	1946.316162
6417.985201	0.100664	0.213416	2038.222412
6417.986098	0.101155	0.213416	2128.958252
6419.006413	0.700789	0.211958	309.047760
6419.007320	0.254963	0.211958	540.299561
6419.008214	0.249646	0.211958	763.483093
6419.009186	0.486859	0.211958	1236.710205
6419.010088	0.100265	0.211958	1327.149170
6419.010988	0.102378	0.211958	1419.289307
6419.011918	0.100452	0.211958	1512.709351
6419.012824	0.099705	0.211958	1603.041748
6419.013725	0.101766	0.211958	1694.733276
6419.014611	0.101495	0.211958	1784.658203
6419.015546	0.099580	0.211958	1877.765625
6419.016453	0.100646	0.211958	1969.051270
6419.017354	0.102063	0.211958	2061.010010
6419.018248	0.100627	0.211958	2150.970947
6420.009953	0.682196	0.212631	310.399200
6420.010849	0.255231	0.212631	539.085937
6420.011798	0.249587	0.212631	775.944397
6420.012729	0.483754	0.212631	1226.319092
6420.013628	0.101422	0.212631	1317.497559
6420.014520	0.101338	0.212631	1407.890991
6420.015457	0.100023	0.212631	1501.612671
6420.016356	0.100591	0.212631	1592.043823
6420.017261	0.101700	0.212631	1684.082764
6420.018156	0.100785	0.212631	1774.285278
6420.019093	0.099705	0.212631	1867.708496
6420.020003	0.101704	0.212631	1960.259277
6420.020895	0.101367	0.212631	2050.678711
6420.021820	0.100118	0.212631	2143.288330
6421.041609	0.720073	0.212639	314.672028
6421.042587	0.255245	0.212639	564.302002
6421.043505	0.248588	0.212639	792.505493
6421.044405	0.489825	0.212639	1233.348389
6421.045343	0.100023	0.212639	1327.170166
6421.046245	0.100291	0.212639	1417.632202
6421.047140	0.101975	0.212639	1508.899902
6421.048030	0.102396	0.212639	1600.032593
6421.048973	0.099891	0.212639	1694.230103
6421.049885	0.101602	0.212639	1786.890747
6421.050783	0.101349	0.212639	1877.902100
6421.051669	0.100972	0.212639	1967.363037
6421.052618	0.099749	0.212639	2062.024414
6421.053522	0.101294	0.212639	2153.594238
6422.045668	0.687858	0.211938	312.975220
6422.046592	0.255370	0.211938	548.937012
6422.047497	0.249532	0.211938	774.763916
6422.048462	0.452007	0.211938	1210.950562
6422.049359	0.099401	0.211938	1300.112915
6422.050264	0.101990	0.211938	1392.413574
6422.051159	0.101613	0.211938	1483.356812
6422.052107	0.099998	0.211938	1578.154541
6422.053011	0.100939	0.211938	1669.403076
6422.053913	0.101946	0.211938	1761.358154
6422.054847	0.100280	0.211938	1855.019287
6422.055747	0.099459	0.211938	1944.532593
6422.056646	0.100913	0.211938	2035.253418
6422.057537	0.101232	0.211938	2125.450928
6423.075281	0.689996	0.212756	307.738342
6423.076198	0.255121	0.212756	541.684143
6423.077098	0.249965	0.212756	766.652283
6423.078041	0.469669	0.212756	1209.550293
6423.078945	0.099060	0.212756	1299.100586
6423.079842	0.102041	0.212756	1390.631348
6423.080726	0.102158	0.212756	1480.939209
6423.081666	0.099902	0.212756	1574.847412
6423.082571	0.100085	0.212756	1665.424805
6423.083474	0.101752	0.212756	1757.306641
6423.084364	0.100961	0.212756	1847.161621
6423.085325	0.099558	0.212756	1942.836914
6423.086229	0.100536	0.212756	2033.721313
6423.087129	0.101832	0.212756	2125.370361
6424.081422	0.717579	0.214000	363.812744
6424.082329	0.255264	0.214000	595.336914
6424.083234	0.248925	0.214000	820.613647
6424.084132	0.487028	0.214000	1257.964478
6424.085080	0.099609	0.214000	1352.394165
6424.085975	0.100708	0.214000	1442.527832
6424.086873	0.102524	0.214000	1534.594727
6424.087775	0.101770	0.214000	1626.391235
6424.088724	0.099774	0.214000	1721.076904
6424.089634	0.101202	0.214000	1813.171143
6424.090531	0.101418	0.214000	1904.143555
6424.091468	0.099760	0.214000	1997.618164
6424.092363	0.099331	0.214000	2086.519531
6424.093261	0.101250	0.214000	2177.442139
6425.109473	0.701133	0.214987	319.015411
6425.110370	0.254747	0.214987	547.523804
6425.111321	0.249122	0.214987	784.439087
6425.112249	0.486929	0.214987	1236.308960
6425.113150	0.101576	0.214987	1327.828857
6425.114041	0.101342	0.214987	1418.124146
6425.114989	0.100042	0.214987	1512.963501
6425.115890	0.101217	0.214987	1604.160034
6425.116785	0.102733	0.214987	1696.106201
6425.117695	0.101078	0.214987	1788.087036
6425.118621	0.099690	0.214987	1880.399902
6425.119526	0.102140	0.214987	1972.836548
6425.120416	0.101334	0.214987	2063.023926
6425.121354	0.099727	0.214987	2156.567383
6426.117571	0.719506	0.211249	311.545929
6426.118508	0.254476	0.211249	549.990234
6426.119453	0.248405	0.211249	784.732544
6426.120370	0.484995	0.211249	1229.473145
6426.121261	0.101737	0.211249	1320.120850
6426.122200	0.100085	0.211249	1414.101074
6426.123119	0.101781	0.211249	1507.637817
6426.124040	0.101012	0.211249	1600.669800
6426.124932	0.101349	0.211249	1691.072998
6426.125879	0.100294	0.211249	1786.051636
6426.126773	0.101309	0.211249	1876.621460
6426.127664	0.101927	0.211249	1967.438843
6426.128590	0.100521	0.211249	2060.521484
6426.129507	0.100679	0.211249	2152.843750
6427.143121	0.719729	0.212808	318.120209
6427.144015	0.255007	0.212808	546.096741
6427.144986	0.249507	0.212808	788.367859
6427.145907	0.474064	0.212808	1224.980469
6427.146803	0.100822	0.212808	1315.316528
6427.147742	0.100649	0.212808	1409.826294
6427.148652	0.100140	0.212808	1500.954102
6427.149554	0.102275	0.212808	1593.206543
6427.150444	0.101217	0.212808	1683.289673
6427.151401	0.099818	0.212808	1778.815674
6427.152298	0.100682	0.212808	1869.127808
6427.153205	0.101935	0.212808	1961.582642
6427.154094	0.101195	0.212808	2051.545166
6427.155041	0.099452	0.212808	2145.726074
6428.153803	0.728767	0.211914	319.928741
6428.154783	0.255421	0.211914	570.241455
6428.155704	0.248665	0.211914	799.261475
6428.156614	0.486204	0.211914	1241.706787
6428.157541	0.099760	0.211914	1334.183838
6428.158439	0.100012	0.211914	1423.994751
6428.159333	0.101686	0.211914	1514.901855
6428.160219	0.101635	0.211914	1604.950073
6428.161149	0.099478	0.211914	1697.464233
6428.162054	0.099800	0.211914	1787.783081
6428.162959	0.100895	0.211914	1879.092896
6428.163846	0.101023	0.211914	1968.700195
6428.164789	0.099320	0.211914	2062.359131
6428.165692	0.100067	0.211914	2152.719727
6429.175770	0.687543	0.217654	312.144409
6429.176665	0.254678	0.217654	540.080933
6429.177618	0.249056	0.217654	777.431641
6429.178542	0.457288	0.217654	1199.965332
6429.179439	0.101807	0.217654	1291.285889
6429.180327	0.101415	0.217654	1381.342285
6429.181266	0.100034	0.217654	1475.274414
6429.182173	0.100734	0.217654	1566.639893
6429.183069	0.102814	0.217654	1658.760986
6429.183984	0.100748	0.217654	1750.945679
6429.184905	0.099719	0.217654	1842.787109
6429.185817	0.101041	0.217654	1934.936768
6429.186710	0.102081	0.217654	2026.095337
6429.187652	0.099668	0.217654	2119.982666
6430.192080	0.689949	0.213622	305.647278
6430.192977	0.255066	0.213622	534.441406
6430.193910	0.249818	0.213622	767.521729
6430.194841	0.461605	0.213622	1197.276245
6430.195745	0.101664	0.213622	1289.180298
6430.196649	0.101649	0.213622	1381.071167
6430.197576	0.100155	0.213622	1473.914917
6430.198481	0.100258	0.213622	1564.648071
6430.199384	0.101906	0.213622	1656.668701
6430.200274	0.101719	0.213622	1747.198364
6430.201219	0.099723	0.213622	1841.436523
6430.202128	0.100653	0.213622	1932.930176
6430.203020	0.102224	0.213622	2024.114136
6430.203941	0.100638	0.213622	2116.802246
6431.207424	0.676077	0.217795	334.657959
6431.208335	0.255084	0.217795	567.039673
6431.209239	0.248822	0.217795	791.974792
6431.210138	0.490785	0.217795	1233.190430
6431.211095	0.099177	0.217795	1328.103027
6431.211999	0.100953	0.217795	1419.364868
6431.212898	0.102396	0.217795	1511.419067
6431.213827	0.100748	0.217795	1605.014160
6431.214734	0.099730	0.217795	1695.469482
6431.215640	0.101093	0.217795	1787.059326
6431.216535	0.101364	0.217795	1877.779663
6431.217477	0.099551	0.217795	1971.556519
6431.218380	0.099998	0.217795	2061.854248
6431.219274	0.102729	0.217795	2153.694336
6432.229323	0.720040	0.211825	313.217499
6432.230221	0.255040	0.211825	542.243652
6432.231193	0.249353	0.211825	784.614807
6432.232116	0.481198	0.211825	1228.760132
6432.233009	0.101656	0.211825	1319.539429
6432.233940	0.100964	0.211825	1413.537231
6432.234843	0.100488	0.211825	1504.278198
6432.235746	0.102224	0.211825	1596.586548
6432.236637	0.101294	0.211825	1686.839478
6432.237581	0.099771	0.211825	1781.022827
6432.238479	0.100558	0.211825	1871.323730
6432.239378	0.100693	0.211825	1961.847046
6432.240294	0.100356	0.211825	2053.773437
6432.241224	0.099159	0.211825	2145.991211
6433.240577	0.597059	0.222009	293.753204
6433.241502	0.255637	0.222009	530.217590
6433.242412	0.248998	0.222009	756.805603
6433.243311	0.492253	0.222009	1199.341431
6433.244262	0.098972	0.222009	1293.463989
6433.245179	0.100807	0.222009	1385.903931
6433.246082	0.102151	0.222009	1478.146118
6433.247009	0.100225	0.222009	1571.054321
6433.247912	0.099584	0.222009	1660.978394
6433.248820	0.101400	0.222009	1753.049683
6433.249713	0.101898	0.222009	1844.044800
6433.250641	0.099492	0.222009	1936.373535
6433.251549	0.100177	0.222009	2027.334229
6433.252448	0.102177	0.222009	2119.190918
6434.268107	0.705491	0.209106	309.004944
6434.269010	0.254784	0.209106	539.074829
6434.269902	0.250067	0.209106	762.134705
6434.270873	0.442057	0.209106	1191.371948
6434.271790	0.099935	0.209106	1283.012573
6434.272692	0.100961	0.209106	1374.079102
6434.273627	0.100089	0.209106	1467.662476
6434.274538	0.099624	0.209106	1558.419922
6434.275438	0.100704	0.209106	1649.053833
6434.276327	0.100631	0.209106	1738.514893
6434.277279	0.099082	0.209106	1832.840942
6434.278178	0.099624	0.209106	1922.402954
6434.279079	0.100276	0.209106	2012.751465
6434.279965	0.099895	0.209106	2101.258545
6435.273163	0.717843	0.219878	315.133087
6435.274115	0.254784	0.219878	557.687378
6435.275041	0.248793	0.219878	788.069458
6435.275964	0.481542	0.219878	1232.532471
6435.276852	0.100496	0.219878	1321.772583
6435.277815	0.099763	0.219878	1417.844482
6435.278721	0.102187	0.219878	1510.426392
6435.279607	0.102437	0.219878	1601.185181
6435.280548	0.099353	0.219878	1694.676392
6435.281443	0.099606	0.219878	1783.823486
6435.282337	0.100950	0.219878	1874.072510
6435.283224	0.102360	0.219878	1964.865479
6435.284152	0.099712	0.219878	2057.398193
6435.285065	0.100836	0.219878	2149.461670
6436.306376	0.728544	0.209263	317.645050
6436.307336	0.255300	0.209263	562.733337
6436.308253	0.249038	0.209263	791.101257
6436.309161	0.449355	0.209263	1199.115967
6436.310094	0.099232	0.209263	1291.699585
6436.310996	0.099701	0.209263	1381.629883
6436.311889	0.100972	0.209263	1471.797607
6436.312779	0.100792	0.209263	1561.502686
6436.313726	0.099445	0.209263	1655.676758
6436.314620	0.099939	0.209263	1745.022217
6436.315522	0.100609	0.209263	1835.771606
6436.316408	0.100023	0.209263	1924.392090
6436.317356	0.099287	0.209263	2018.516235
6436.318259	0.100031	0.209263	2108.843750
6437.306313	0.728126	0.220051	316.006775
6437.307265	0.254806	0.220051	558.581970
6437.308195	0.248474	0.220051	789.662903
6437.309116	0.432594	0.220051	1188.081909
6437.310004	0.100221	0.220051	1277.078125
6437.310962	0.099507	0.220051	1372.405640
6437.311857	0.100613	0.220051	1462.454102
6437.312746	0.100657	0.220051	1551.937988
6437.313658	0.099884	0.220051	1643.032227
6437.314584	0.099932	0.220051	1735.568970
6437.315494	0.100635	0.220051	1827.146606
6437.316386	0.100935	0.220051	1917.180664
6437.317312	0.099302	0.220051	2009.134033
6437.318229	0.099983	0.220051	2100.818359
6438.343654	0.659000	0.206480	297.209106
6438.344582	0.254462	0.206480	533.349487
6438.345483	0.248639	0.206480	757.373169
6438.346414	0.365094	0.206480	1097.275635
6438.347338	0.098807	0.206480	1188.573608
6438.348246	0.100913	0.206480	1280.202637
6438.349138	0.100972	0.206480	1370.269409
6438.350069	0.100137	0.206480	1463.496704
6438.350973	0.099716	0.206480	1553.639648
6438.351874	0.101038	0.206480	1644.674561
6438.352763	0.100836	0.206480	1734.317871
6438.353732	0.099434	0.206480	1830.669067
6438.354639	0.100159	0.206480	1921.512939
6438.355532	0.100682	0.206480	2011.422241
6439.339474	0.700386	0.221018	312.372040
6439.340370	0.254630	0.221018	540.520630
6439.341338	0.248558	0.221018	781.125122
6439.342258	0.439384	0.221018	1185.357910
6439.343152	0.100605	0.221018	1275.299194
6439.344095	0.099851	0.221018	1369.458740
6439.345004	0.101455	0.221018	1461.681396
6439.345920	0.100968	0.221018	1554.168091
6439.346807	0.100774	0.221018	1643.554565
6439.347756	0.099650	0.221018	1738.122070
6439.348656	0.100719	0.221018	1828.769165
6439.349551	0.100990	0.221018	1919.155151
6439.350460	0.100203	0.221018	2010.239380
6439.351400	0.100444	0.221018	2104.656982
6440.380384	0.637581	0.206254	293.924652
6440.381309	0.255081	0.206254	529.874207
6440.382219	0.249027	0.206254	756.488892
6440.383179	0.436816	0.206254	1175.832642
6440.384086	0.099170	0.206254	1265.779785
6440.384982	0.101451	0.206254	1356.680298
6440.385870	0.101653	0.206254	1446.947998
6440.386820	0.099968	0.206254	1541.917847
6440.387721	0.100192	0.206254	1632.190552
6440.388623	0.100778	0.206254	1723.091919
6440.389549	0.100148	0.206254	1815.828735
6440.390465	0.099287	0.206254	1906.775757
6440.391380	0.101001	0.206254	1999.191650
6440.392272	0.100807	0.206254	2089.111328
6441.372618	0.711130	0.218649	312.897369
6441.373600	0.254912	0.218649	563.221069
6441.374523	0.248013	0.218649	792.136780
6441.375429	0.488335	0.218649	1234.568237
6441.376369	0.099818	0.218649	1328.397217
6441.377270	0.099796	0.218649	1418.313599
6441.378167	0.101949	0.218649	1509.762207
6441.379055	0.102751	0.218649	1601.005493
6441.380009	0.099734	0.218649	1696.151611
6441.380899	0.100320	0.218649	1785.436279
6441.381802	0.102228	0.218649	1877.747925
6441.382697	0.100968	0.218649	1968.114258
6441.383627	0.099551	0.218649	2060.696533
6441.384536	0.101345	0.218649	2152.819336
6442.416075	0.728558	0.205759	319.837128
6442.417034	0.254941	0.205759	564.325928
6442.417948	0.248588	0.205759	791.535034
6442.418845	0.497109	0.205759	1237.442139
6442.419763	0.100811	0.205759	1329.986206
6442.420695	0.100660	0.205759	1423.801758
6442.421599	0.102184	0.205759	1516.175903
6442.422488	0.103323	0.205759	1608.029785
6442.423435	0.100082	0.205759	1702.807251
6442.424349	0.100437	0.205759	1794.606689
6442.425246	0.101884	0.205759	1885.996216
6442.426138	0.101184	0.205759	1976.252441
6442.427080	0.099214	0.205759	2069.711914
6442.427983	0.102352	0.205759	2162.135986
6443.406813	0.664127	0.217457	296.864838
6443.407735	0.255026	0.217457	531.998474
6443.408633	0.249521	0.217457	756.068787
6443.409601	0.490701	0.217457	1231.067017
6443.410505	0.098998	0.217457	1320.561035
6443.411402	0.102070	0.217457	1412.118164
6443.412295	0.101975	0.217457	1503.181885
6443.413225	0.099760	0.217457	1595.958252
6443.414132	0.100796	0.217457	1687.380127
6443.415032	0.101404	0.217457	1778.643555
6443.415958	0.100503	0.217457	1871.709229
6443.416862	0.099536	0.217457	1961.689941
6443.417766	0.101331	0.217457	2053.292725
6443.418659	0.101459	0.217457	2143.895508
6444.451816	0.688971	0.206101	321.749451
6444.452719	0.254919	0.206101	551.941650
6444.453676	0.248914	0.206101	790.151917
6444.454593	0.489470	0.206101	1238.996094
6444.455517	0.101393	0.206101	1332.683105
6444.456408	0.101418	0.206101	1423.046997
6444.457363	0.101276	0.206101	1519.765259
6444.458258	0.101920	0.206101	1610.983765
6444.459151	0.102319	0.206101	1702.354980
6444.460086	0.100228	0.206101	1796.068359
6444.460989	0.100891	0.206101	1887.173096
6444.461893	0.100616	0.206101	1978.130371
6444.462785	0.102404	0.206101	2069.474365
6444.463726	0.099254	0.206101	2162.872559
6445.440973	0.714983	0.216164	316.022461
6445.441869	0.255051	0.216164	544.548401
6445.442819	0.249474	0.216164	781.548584
6445.443748	0.487185	0.216164	1234.143555
6445.444652	0.101327	0.216164	1325.743042
6445.445540	0.101107	0.216164	1415.526245
6445.446490	0.099976	0.216164	1510.503052
6445.447392	0.100770	0.216164	1601.397827
6445.448287	0.101792	0.216164	1692.501709
6445.449236	0.100686	0.216164	1788.052734
6445.450140	0.099478	0.216164	1877.980469
6445.451031	0.101895	0.216164	1968.768555
6445.451923	0.102107	0.216164	2059.847900
6445.452860	0.099481	0.216164	2153.061768
6446.487507	0.680955	0.213340	304.386688
6446.488407	0.255282	0.213340	534.140503
6446.489357	0.249382	0.213340	771.053711
6446.490281	0.489708	0.213340	1223.544189
6446.491183	0.101748	0.213340	1315.320923
6446.492072	0.101927	0.213340	1405.934448
6446.493032	0.099965	0.213340	1501.900513
6446.493935	0.100507	0.213340	1592.657959
6446.494824	0.102096	0.213340	1683.421265
6446.495771	0.099862	0.213340	1777.990601
6446.496673	0.099393	0.213340	1867.643311
6446.497570	0.100708	0.213340	1957.978394
6446.498460	0.102220	0.213340	2048.954590
6446.499407	0.099382	0.213340	2143.069580
6447.475659	0.728807	0.219225	319.946442
6447.476625	0.255260	0.219225	566.527588
6447.477539	0.248906	0.219225	794.027893
6447.478445	0.492642	0.219225	1240.361206
6447.479375	0.099902	0.219225	1333.270386
6447.480289	0.100525	0.219225	1425.150146
6447.481200	0.101763	0.219225	1517.855957
6447.482089	0.101909	0.219225	1608.453247
6447.483040	0.099716	0.219225	1703.282715
6447.483949	0.101429	0.219225	1795.482056
6447.484847	0.101825	0.219225	1886.920898
6447.485735	0.100675	0.219225	1976.320312
6447.486666	0.099489	0.219225	2068.944092
6447.487578	0.101415	0.219225	2161.434326
6448.521673	0.728342	0.210939	319.742249
6448.522648	0.255630	0.210939	568.981384
6448.523562	0.249005	0.210939	796.572083
6448.524466	0.482091	0.210939	1232.382324
6448.525390	0.100796	0.210939	1325.517700
6448.526315	0.099910	0.210939	1417.934082
6448.527213	0.101210	0.210939	1508.820435
6448.528111	0.101957	0.210939	1600.377686
6448.529040	0.099825	0.210939	1693.115479
6448.529947	0.099628	0.210939	1783.477783
6448.530855	0.100800	0.210939	1875.003784
6448.531743	0.101411	0.210939	1965.056885
6448.532702	0.099404	0.210939	2060.385498
6448.533610	0.100393	0.210939	2151.542480
6449.511368	0.718953	0.222122	312.744415
6449.512327	0.255421	0.222122	557.693298
6449.513247	0.249309	0.222122	787.057617
6449.514157	0.486555	0.222122	1229.822754
6449.515046	0.101389	0.222122	1319.957764
6449.515994	0.100118	0.222122	1414.869995
6449.516905	0.100854	0.222122	1506.748413
6449.517802	0.101880	0.222122	1598.134644
6449.518730	0.100898	0.222122	1691.768433
6449.519636	0.099789	0.222122	1782.177124
6449.520530	0.102330	0.222122	1873.660400
6449.521418	0.101342	0.222122	1963.651733
6449.522360	0.099536	0.222122	2057.414795
6449.523267	0.099781	0.222122	2147.916504
6450.555915	0.679937	0.208901	342.688019
6450.556831	0.255106	0.208901	576.365295
6450.557734	0.248983	0.208901	801.197083
6450.558634	0.491133	0.208901	1243.216553
6450.559570	0.098917	0.208901	1335.803101
6450.560474	0.102697	0.208901	1428.640747
6450.561363	0.101792	0.208901	1519.133789
6450.562268	0.101796	0.208901	1611.258911
6450.563199	0.100269	0.208901	1704.608887
6450.564108	0.101682	0.208901	1797.037964
6450.564997	0.102063	0.208901	1887.771973
6450.565935	0.099847	0.208901	1981.428833
6450.566843	0.101407	0.208901	2073.506836
6450.567740	0.101206	0.208901	2164.288574
6451.546073	0.682079	0.219572	304.889282
6451.547000	0.255363	0.219572	541.610352
6451.547898	0.249917	0.219572	766.035767
6451.548855	0.479857	0.219572	1225.259033
6451.549755	0.100009	0.219572	1315.266724
6451.550658	0.102393	0.219572	1407.727173
6451.551547	0.102426	0.219572	1498.783447
6451.552509	0.100016	0.219572	1594.998779
6451.553413	0.100649	0.219572	1685.985840
6451.554313	0.102330	0.219572	1778.083130
6451.555245	0.100217	0.219572	1871.485596
6451.556142	0.099232	0.219572	1960.496826
6451.557043	0.102458	0.219572	2052.812012
6451.557928	0.102568	0.219572	2143.584961
6452.589531	0.677388	0.215350	303.469696
6452.590433	0.254930	0.215350	533.416931
6452.591327	0.249873	0.215350	756.803467
6452.592285	0.479436	0.215350	1216.103149
6452.593194	0.100078	0.215350	1307.074219
6452.594098	0.101283	0.215350	1398.634033
6452.595030	0.100342	0.215350	1492.152588
6452.595943	0.099767	0.215350	1583.239746
6452.596851	0.101719	0.215350	1675.600342
6452.597747	0.101415	0.215350	1766.468018
6452.598695	0.099565	0.215350	1860.856079
6452.599598	0.099858	0.215350	1951.028198
6452.600502	0.101755	0.215350	2043.015015
6452.601389	0.100638	0.215350	2132.281250
6453.582867	0.551378	0.217284	281.202881
6453.583782	0.255659	0.217284	515.130981
6453.584715	0.248774	0.217284	747.237549
6453.585617	0.487639	0.217284	1187.088135
6453.586569	0.100159	0.217284	1282.439209
6453.587460	0.102898	0.217284	1374.121338
6453.588352	0.103026	0.217284	1466.020630
6453.589294	0.100203	0.217284	1560.411499
6453.590200	0.101323	0.217284	1652.210327
6453.591114	0.101968	0.217284	1745.408936
6453.592011	0.100986	0.217284	1835.993652
6453.592965	0.099672	0.217284	1931.080444
6453.593880	0.102286	0.217284	2024.672485
6453.594789	0.101942	0.217284	2117.337891
6454.623189	0.701199	0.210073	316.240631
6454.624086	0.255212	0.210073	545.166138
6454.625048	0.249562	0.210073	785.244568
6454.625965	0.487236	0.210073	1232.040283
6454.626865	0.100858	0.210073	1322.812622
6454.627753	0.101191	0.210073	1412.670654
6454.628683	0.100042	0.210073	1505.709229
6454.629585	0.100620	0.210073	1596.468628
6454.630494	0.101931	0.210073	1689.124023
6454.631408	0.101345	0.210073	1781.753540
6454.632341	0.099646	0.210073	1874.723267
6454.633251	0.101602	0.210073	1967.180664
6454.634152	0.101400	0.210073	2058.542236
6454.635095	0.099833	0.210073	2152.684570
6455.618522	0.668782	0.218859	297.607849
6455.619449	0.255385	0.218859	534.349304
6455.620362	0.249727	0.218859	762.349609
6455.621286	0.416763	0.218859	1147.438354
6455.622228	0.099437	0.218859	1241.108276
6455.623143	0.101902	0.218859	1334.348511
6455.624035	0.103004	0.218859	1426.228271
6455.624956	0.100217	0.218859	1518.528442
6455.625860	0.099701	0.218859	1608.658081
6455.626766	0.101726	0.218859	1700.821899
6455.627659	0.100876	0.218859	1790.904541
6455.628609	0.099382	0.218859	1885.317749
6455.629514	0.099734	0.218859	1975.576904
6455.630415	0.101173	0.218859	2066.733887
6456.655846	0.664710	0.211487	298.454559
6456.656756	0.255165	0.211487	530.654541
6456.657653	0.250042	0.211487	754.941772
6456.658644	0.479612	0.211487	1230.237061
6456.659544	0.099987	0.211487	1320.224976
6456.660443	0.102360	0.211487	1412.246216
6456.661331	0.101503	0.211487	1502.380615
6456.662269	0.099756	0.211487	1595.951660
6456.663172	0.101378	0.211487	1687.496094
6456.664063	0.101847	0.211487	1778.241699
6456.664972	0.100979	0.211487	1870.031616
6456.665894	0.100309	0.211487	1962.516357
6456.666796	0.102579	0.211487	2055.042969
6456.667684	0.101968	0.211487	2145.590332
6457.656288	0.673312	0.227097	304.336914
6457.657186	0.255385	0.227097	533.672241
6457.658124	0.249818	0.227097	768.001587
6457.659055	0.492158	0.227097	1226.200928
6457.659955	0.101096	0.227097	1317.187500
6457.660844	0.101312	0.227097	1407.254150
6457.661783	0.099844	0.227097	1501.007446
6457.662688	0.100331	0.227097	1591.806885
6457.663580	0.101682	0.227097	1682.507324
6457.664506	0.100302	0.227097	1775.386475
6457.665421	0.099565	0.227097	1866.488892
6457.666325	0.101719	0.227097	1958.442627
6457.667222	0.101810	0.227097	2049.766357
6457.668153	0.099844	0.227097	2142.720947
6458.687466	0.703477	0.214653	332.744415
6458.688370	0.255278	0.214653	563.515991
6458.689320	0.249250	0.214653	800.303955
6458.690242	0.480326	0.214653	1243.164429
6458.691174	0.101019	0.214653	1337.314453
6458.692060	0.101521	0.214653	1427.262085
6458.693022	0.102861	0.214653	1526.214722
6458.693930	0.102385	0.214653	1619.180542
6458.694826	0.101781	0.214653	1710.376343
6458.695759	0.100935	0.214653	1804.548706
6458.696685	0.100638	0.214653	1897.739868
6458.697612	0.101265	0.214653	1991.612183
6458.698501	0.100719	0.214653	2081.151367
6458.699450	0.102078	0.214653	2178.022949
6459.693006	0.718872	0.220297	315.584839
6459.693905	0.254963	0.220297	544.796875
6459.694848	0.249727	0.220297	780.289001
6459.695776	0.478484	0.220297	1224.322021
6459.696674	0.102147	0.220297	1316.050171
6459.697583	0.101462	0.220297	1408.279541
6459.698510	0.100140	0.220297	1501.109619
6459.699420	0.101766	0.220297	1593.717041
6459.700312	0.102250	0.220297	1684.923828
6459.701259	0.099862	0.220297	1779.493164
6459.702161	0.099771	0.220297	1869.486206
6459.703055	0.102568	0.220297	1961.182373
6459.703945	0.101854	0.220297	2051.832764
6459.704876	0.099379	0.220297	2144.354248
6460.718555	0.692747	0.214065	309.657715
6460.719454	0.254960	0.214065	538.866455
6460.720346	0.250027	0.214065	761.890381
6460.721293	0.500021	0.214065	1235.410034
6460.722196	0.100027	0.214065	1325.734253
6460.723096	0.102111	0.214065	1417.633789
6460.723986	0.101473	0.214065	1507.945068
6460.724935	0.099752	0.214065	1602.609863
6460.725836	0.101089	0.214065	1693.690918
6460.726726	0.101876	0.214065	1784.360718
6460.727670	0.099990	0.214065	1878.751465
6460.728575	0.099042	0.214065	1968.384277
6460.729477	0.102561	0.214065	2060.894287
6460.730362	0.101499	0.214065	2150.720947
6461.730254	0.728013	0.220961	318.869568
6461.731199	0.254996	0.220961	559.841064
6461.732115	0.249049	0.220961	787.970032
6461.733034	0.487841	0.220961	1236.295532
6461.733920	0.100236	0.220961	1325.104248
6461.734866	0.100144	0.220961	1419.840454
6461.735772	0.101338	0.220961	1511.652588
6461.736669	0.102114	0.220961	1603.249023
6461.737598	0.100408	0.220961	1696.527832
6461.738510	0.099349	0.220961	1787.134399
6461.739414	0.101946	0.220961	1879.293457
6461.740303	0.101766	0.220961	1969.763794
6461.741253	0.099174	0.220961	2063.978760
6461.742156	0.100009	0.220961	2154.286377
6462.750724	0.715865	0.214468	354.353424
6462.751645	0.255399	0.214468	589.576050
6462.752555	0.249005	0.214468	816.170715
6462.753464	0.481586	0.214468	1253.932129
6462.754419	0.099536	0.214468	1348.989136
6462.755316	0.100598	0.214468	1439.225708
6462.756215	0.102546	0.214468	1531.414917
6462.757104	0.101558	0.214468	1621.699585
6462.758049	0.099569	0.214468	1715.792358
6462.758952	0.101312	0.214468	1807.277344
6462.759853	0.101378	0.214468	1898.619141
6462.760784	0.100642	0.214468	1992.316895
6462.761689	0.098983	0.214468	2081.896729
6462.762594	0.100719	0.214468	2173.047363
6463.766983	0.718923	0.215245	312.012726
6463.767925	0.255293	0.215245	552.498718
6463.768858	0.249360	0.215245	785.151917
6463.769768	0.483911	0.215245	1225.511108
6463.770651	0.100873	0.215245	1314.581787
6463.771594	0.099979	0.215245	1408.862183
6463.772492	0.101851	0.215245	1500.323975
6463.773382	0.101609	0.215245	1590.755859
6463.774299	0.100316	0.215245	1682.745728
6463.775222	0.099998	0.215245	1775.043457
6463.776128	0.101147	0.215245	1866.683105
6463.777019	0.102048	0.215245	1957.608154
6463.777947	0.099514	0.215245	2049.957275
6463.778854	0.100316	0.215245	2140.944092
6464.783310	0.714020	0.215535	312.740662
6464.784260	0.255542	0.215535	555.505554
6464.785173	0.249489	0.215535	783.288574
6464.786092	0.492729	0.215535	1236.106934
6464.786980	0.100422	0.215535	1325.281982
6464.787924	0.100184	0.215535	1419.855957
6464.788840	0.101459	0.215535	1512.792114
6464.789730	0.103271	0.215535	1604.703735
6464.790665	0.100569	0.215535	1698.735596
6464.791564	0.099276	0.215535	1787.984863
6464.792458	0.102067	0.215535	1879.232422
6464.793347	0.101382	0.215535	1969.360840
6464.794294	0.099115	0.215535	2063.222656
6464.795198	0.099628	0.215535	2153.286133
6465.803223	0.714686	0.218754	318.750092
6465.804126	0.255135	0.218754	549.137451
6465.805073	0.249576	0.218754	785.486328
6465.805993	0.473163	0.218754	1220.796143
6465.806913	0.100576	0.218754	1313.326172
6465.807799	0.100851	0.218754	1402.680054
6465.808759	0.101730	0.218754	1500.340576
6465.809664	0.101675	0.218754	1592.356323
6465.810595	0.101814	0.218754	1687.145142
6465.811485	0.100763	0.218754	1776.824219
6465.812438	0.101400	0.218754	1873.458496
6465.813359	0.101737	0.218754	1967.158325
6465.814247	0.101228	0.218754	2057.048828
6465.815197	0.100646	0.218754	2152.662354
6466.814935	0.677197	0.212200	304.061584
6466.815839	0.255209	0.212200	534.770325
6466.816736	0.249767	0.212200	758.811157
6466.817730	0.482922	0.212200	1238.835937
6466.818649	0.099998	0.212200	1330.733643
6466.819551	0.102598	0.212200	1423.276733
6466.820494	0.100199	0.212200	1517.764404
6466.821396	0.099979	0.212200	1607.945679
6466.822293	0.101704	0.212200	1699.174316
6466.823182	0.102034	0.212200	1789.882324
6466.824117	0.099320	0.212200	1882.746582
6466.825023	0.100118	0.212200	1973.453857
6466.825924	0.101448	0.212200	2064.858398
6466.826830	0.099983	0.212200	2155.442871
6467.839948	0.703400	0.216393	310.199249
6467.840927	0.255886	0.216393	560.711853
6467.841839	0.249302	0.216393	788.075073
6467.842740	0.489148	0.216393	1228.797363
6467.843692	0.099811	0.216393	1323.817261
6467.844594	0.099917	0.216393	1413.942383
6467.845493	0.102770	0.216393	1506.332397
6467.846379	0.102023	0.216393	1596.724487
6467.847325	0.099745	0.216393	1691.083130
6467.848231	0.100327	0.216393	1781.979492
6467.849130	0.101946	0.216393	1873.628784
6467.850020	0.100928	0.216393	1963.454468
6467.850969	0.099686	0.216393	2058.056641
6467.851873	0.101667	0.216393	2149.964111
6468.848607	0.659268	0.214250	302.603821
6468.849510	0.255033	0.214250	532.898560
6468.850446	0.249313	0.214250	766.255310
6468.851368	0.490408	0.214250	1218.411255
6468.852273	0.100671	0.214250	1309.518799
6468.853163	0.101276	0.214250	1399.654053
6468.854119	0.100074	0.214250	1495.325195
6468.855028	0.101118	0.214250	1587.241577
6468.855923	0.103293	0.214250	1679.689209
6468.856861	0.100173	0.214250	1773.651855
6468.857757	0.099185	0.214250	1862.521240
6468.858653	0.101426	0.214250	1953.398682
6468.859539	0.100986	0.214250	2042.872559
6468.860483	0.099082	0.214250	2136.406006
6469.875656	0.719788	0.217276	312.387817
6469.876592	0.255103	0.217276	551.163818
6469.877517	0.249558	0.217276	782.005066
6469.878438	0.488829	0.217276	1232.216919
6469.879327	0.101653	0.217276	1322.586304
6469.880263	0.100800	0.217276	1416.934692
6469.881173	0.100331	0.217276	1508.235718
6469.882068	0.102927	0.217276	1600.355591
6469.882959	0.101470	0.217276	1690.765137
6469.883905	0.099763	0.217276	1785.141113
6469.884812	0.100701	0.217276	1876.476685
6469.885707	0.101543	0.217276	1967.357666
6469.886637	0.100331	0.217276	2060.665283
6469.887546	0.099305	0.217276	2150.933838
6470.882247	0.719304	0.216240	312.178040
6470.883191	0.254930	0.216240	552.832336
6470.884110	0.249272	0.216240	781.913696
6470.885034	0.483629	0.216240	1228.787109
6470.885931	0.101810	0.216240	1320.110962
6470.886864	0.100118	0.216240	1413.521484
6470.887774	0.100488	0.216240	1504.965820
6470.888675	0.102810	0.216240	1597.597656
6470.889564	0.100833	0.216240	1687.237793
6470.890505	0.099298	0.216240	1780.677246
6470.891412	0.100576	0.216240	1871.899780
6470.892306	0.101521	0.216240	1962.659546
6470.893245	0.099891	0.216240	2056.457520
6470.894154	0.098903	0.216240	2146.359863
6471.910888	0.701982	0.215092	317.998047
6471.911790	0.255179	0.215092	548.169922
6471.912685	0.249902	0.215092	771.832520
6471.913647	0.474294	0.215092	1228.103760
6471.914550	0.100865	0.215092	1319.185303
6471.915446	0.102858	0.215092	1411.345825
6471.916360	0.101667	0.215092	1504.269897
6471.917279	0.100078	0.215092	1596.241699
6471.918185	0.101144	0.215092	1687.877930
6471.919084	0.101766	0.215092	1779.365845
6471.920022	0.099716	0.215092	1872.899048
6471.920924	0.099510	0.215092	1962.657471
6471.921825	0.101217	0.215092	2053.854004
6471.922714	0.100862	0.215092	2143.520264
6472.917012	0.694783	0.217324	356.423553
6472.917936	0.255465	0.217324	592.473267
6472.918835	0.248778	0.217324	816.124756
6472.919732	0.486094	0.217324	1252.150879
6472.920670	0.099159	0.217324	1345.161987
6472.921581	0.102843	0.217324	1438.851929
6472.922471	0.101733	0.217324	1529.394653
6472.923394	0.100236	0.217324	1621.912109
6472.924304	0.099814	0.217324	1712.743286
6472.925207	0.102122	0.217324	1804.959106
6472.926097	0.102206	0.217324	1895.922241
6472.927033	0.099294	0.217324	1988.861816
6472.927933	0.100060	0.217324	2078.915527
6472.928833	0.101488	0.217324	2170.254883
6473.947096	0.682646	0.215161	304.460327
6473.948020	0.255128	0.215161	540.198730
6473.948922	0.249551	0.215161	765.293518
6473.949861	0.489935	0.215161	1225.342773
6473.950766	0.099393	0.215161	1315.293701
6473.951671	0.102374	0.215161	1407.942383
6473.952561	0.102041	0.215161	1498.758911
6473.953516	0.099902	0.215161	1594.165649
6473.954420	0.100199	0.215161	1684.745483
6473.955314	0.101162	0.215161	1775.184448
6473.956233	0.100822	0.215161	1867.839478
6473.957142	0.099309	0.215161	1958.111450
6473.958050	0.101173	0.215161	2049.976562
6473.958951	0.101653	0.215161	2141.565674
6474.952147	0.691113	0.220220	308.236511
6474.953045	0.254707	0.220220	536.963440
6474.954006	0.249265	0.220220	776.507202
6474.954933	0.486299	0.220220	1227.306152
6474.955857	0.101873	0.220220	1321.436401
6474.956747	0.101147	0.220220	1411.457642
6474.957703	0.101008	0.220220	1508.021606
6474.958599	0.101993	0.220220	1599.407715
6474.959487	0.102506	0.220220	1690.433105
6474.960417	0.099972	0.220220	1783.406982
6474.961324	0.101777	0.220220	1875.718994
6474.962245	0.102122	0.220220	1969.772949
6474.963136	0.101371	0.220220	2060.094482
6474.964081	0.100100	0.220220	2154.688965
6475.982284	0.718956	0.215938	314.902863
6475.983242	0.255667	0.215938	559.831421
6475.984157	0.249492	0.215938	788.116760
6475.985059	0.483593	0.215938	1224.317261
6475.985992	0.100107	0.215938	1317.717529
6475.986906	0.100052	0.215938	1409.165527
6475.987805	0.101210	0.215938	1500.153076
6475.988704	0.102726	0.215938	1592.503540
6475.989642	0.100038	0.215938	1686.338989
6475.990549	0.099855	0.215938	1776.907227
6475.991449	0.101279	0.215938	1868.058594
6475.992340	0.100939	0.215938	1957.994995
6475.993301	0.099130	0.215938	2053.258545
6475.994200	0.100078	0.215938	2143.228760
6476.987363	0.673048	0.221449	303.544708
6476.988263	0.255260	0.221449	533.278748
6476.989163	0.250067	0.221449	758.339172
6476.990104	0.426533	0.221449	1159.706909
6476.991026	0.099727	0.221449	1251.654785
6476.991917	0.101931	0.221449	1342.475464
6476.992809	0.102733	0.221449	1434.113403
6476.993741	0.100444	0.221449	1527.727539
6476.994649	0.101279	0.221449	1619.689087
6476.995565	0.100635	0.221449	1711.870483
6476.996455	0.101045	0.221449	1801.800415
6476.997401	0.100316	0.221449	1896.699463
6476.998297	0.101671	0.221449	1987.796753
6476.999187	0.102330	0.221449	2078.870850
6478.017992	0.722461	0.216998	314.270508
6478.018889	0.254597	0.216998	542.644165
6478.019852	0.249229	0.216998	782.651245
6478.020780	0.484215	0.216998	1232.002808
6478.021680	0.102085	0.216998	1323.879272
6478.022615	0.100312	0.216998	1417.671509
6478.023520	0.099899	0.216998	1508.079834
6478.024422	0.101990	0.216998	1600.074585
6478.025312	0.101199	0.216998	1690.141479
6478.026243	0.099478	0.216998	1782.755127
6478.027154	0.100393	0.216998	1874.213257
6478.028056	0.101968	0.216998	1966.188232
6478.028946	0.101375	0.216998	2056.411621
6478.029895	0.099434	0.216998	2150.774170
6479.022027	0.728749	0.220345	321.378204
6479.023009	0.255168	0.220345	571.953613
6479.023927	0.248401	0.220345	799.985596
6479.024834	0.487093	0.220345	1241.779419
6479.025763	0.100155	0.220345	1334.823486
6479.026664	0.099994	0.220345	1424.917969
6479.027572	0.102345	0.220345	1517.847168
6479.028463	0.103191	0.220345	1609.790283
6479.029406	0.100001	0.220345	1704.091431
6479.030312	0.100045	0.220345	1794.732300
6479.031219	0.101411	0.220345	1886.712158
6479.032109	0.101693	0.220345	1977.218994
6479.033063	0.099609	0.220345	2072.246338
6479.033969	0.100448	0.220345	2163.252197
6480.052174	0.718861	0.221622	318.455444
6480.053145	0.254967	0.221622	566.028442
6480.054057	0.248767	0.221622	792.904053
6480.054970	0.484080	0.221622	1234.868652
6480.055858	0.100009	0.221622	1323.676270
6480.056807	0.100258	0.221622	1418.820679
6480.057702	0.101195	0.221622	1509.390259
6480.058593	0.101396	0.221622	1599.734497
6480.059531	0.100203	0.221622	1693.724609
6480.060443	0.100151	0.221622	1785.062622
6480.061349	0.102883	0.221622	1878.274902
6480.062240	0.101371	0.221622	1968.596313
6480.063200	0.099426	0.221622	2064.045410
6480.064113	0.100836	0.221622	2156.108887
6481.057258	0.660439	0.219821	306.443909
6481.058158	0.255304	0.219821	536.217468
6481.059127	0.249100	0.219821	777.595703
6481.060053	0.461631	0.219821	1205.065918
6481.060950	0.101766	0.219821	1296.350342
6481.061839	0.101726	0.219821	1386.784790
6481.062787	0.100243	0.219821	1481.815063
6481.063695	0.101063	0.219821	1573.580444
6481.064593	0.103246	0.219821	1666.295166
6481.065520	0.100551	0.219821	1759.505493
6481.066433	0.099595	0.219821	1850.435425
6481.067338	0.101385	0.219821	1942.189331
6481.068234	0.101056	0.219821	2032.735474
6481.069180	0.099320	0.219821	2126.692383
6482.085830	0.732942	0.217280	318.829742
6482.086794	0.255198	0.217280	564.840332
6482.087706	0.248811	0.217280	791.755981
6482.088643	0.486222	0.217280	1247.345947
6482.089538	0.100005	0.217280	1336.850342
6482.090484	0.101320	0.217280	1432.698730
6482.091372	0.101283	0.217280	1522.637939
6482.092261	0.101147	0.217280	1612.557983
6482.093200	0.100287	0.217280	1706.727295
6482.094105	0.101510	0.217280	1798.593872
6482.095018	0.100990	0.217280	1890.797729
6482.095913	0.100876	0.217280	1981.082153
6482.096866	0.100177	0.217280	2076.550781
6482.097769	0.101532	0.217280	2168.234131
6483.092441	0.678226	0.220228	301.810699
6483.093352	0.255238	0.220228	534.332520
6483.094265	0.249792	0.220228	762.393066
6483.095175	0.421934	0.220228	1146.352661
6483.096143	0.099390	0.220228	1242.561890
6483.097053	0.101147	0.220228	1334.606079
6483.097951	0.102993	0.220228	1427.093994
6483.098889	0.100433	0.220228	1521.300537
6483.099794	0.099818	0.220228	1611.635986
6483.100695	0.102448	0.220228	1703.941162
6483.101584	0.101810	0.220228	1794.450562
6483.102523	0.099510	0.220228	1887.890869
6483.103433	0.099686	0.220228	1978.605347
6483.104330	0.101547	0.220228	2069.692627
6484.120030	0.696156	0.221465	313.270203
6484.120925	0.254733	0.221465	541.255920
6484.121864	0.249309	0.221465	775.357178
6484.122790	0.486566	0.221465	1225.917480
6484.123703	0.101473	0.221465	1318.562744
6484.124604	0.101715	0.221465	1410.208008
6484.125539	0.099873	0.221465	1503.589355
6484.126441	0.100060	0.221465	1593.843262
6484.127343	0.102415	0.221465	1686.221191
6484.128230	0.101796	0.221465	1776.513916
6484.129163	0.099792	0.221465	1869.620361
6484.130067	0.100404	0.221465	1960.385620
6484.130956	0.101865	0.221465	2050.943848
6484.131889	0.100488	0.221465	2144.699463
6485.128705	0.610950	0.216373	299.365356
6485.129630	0.255754	0.216373	535.938171
6485.130544	0.249082	0.216373	763.599182
6485.131444	0.494795	0.216373	1208.914551
6485.132390	0.099653	0.216373	1303.186646
6485.133292	0.101484	0.216373	1394.725586
6485.134179	0.102733	0.216373	1485.849854
6485.135108	0.101554	0.216373	1580.193481
6485.136025	0.099778	0.216373	1671.689697
6485.136933	0.101587	0.216373	1763.930664
6485.137833	0.102195	0.216373	1855.906006
6485.138764	0.099137	0.216373	1948.202515
6485.139671	0.099353	0.216373	2038.315674
6485.140575	0.100693	0.216373	2129.342529
6486.153689	0.700294	0.220929	313.031494
6486.154585	0.254290	0.220929	540.874939
6486.155550	0.248525	0.220929	780.701904
6486.156469	0.471702	0.220929	1214.195801
6486.157365	0.102187	0.220929	1305.755859
6486.158281	0.102078	0.220929	1399.259033
6486.159203	0.099891	0.220929	1491.358887
6486.160113	0.101309	0.220929	1583.549683
6486.161013	0.101569	0.220929	1674.961426
6486.161949	0.100140	0.220929	1768.692871
6486.162851	0.099932	0.220929	1858.831177
6486.163750	0.101667	0.220929	1950.230225
6486.164636	0.100880	0.220929	2039.609985
6486.165576	0.099547	0.220929	2133.184326
6487.165921	0.692845	0.222033	312.473297
6487.166824	0.254656	0.222033	542.427429
6487.167713	0.249591	0.222033	764.313904
6487.168673	0.489694	0.222033	1234.419800
6487.169577	0.099910	0.222033	1324.738159
6487.170482	0.101517	0.222033	1416.611328
6487.171371	0.101591	0.222033	1506.925293
6487.172318	0.099624	0.222033	1601.269287
6487.173237	0.100646	0.222033	1693.762695
6487.174135	0.101528	0.222033	1784.935181
6487.175073	0.100221	0.222033	1878.942383
6487.175974	0.099133	0.222033	1968.261475
6487.176870	0.101814	0.222033	2059.486816
6487.177756	0.100785	0.222033	2148.782227
6488.186827	0.724321	0.223523	318.701385
6488.187723	0.254506	0.223523	546.738403
6488.188689	0.249174	0.223523	787.440063
6488.189616	0.472214	0.223523	1225.182739
6488.190513	0.100470	0.223523	1315.304321
6488.191433	0.100825	0.223523	1408.063477
6488.192337	0.099891	0.223523	1498.365234
6488.193244	0.101210	0.223523	1590.162476
6488.194132	0.101631	0.223523	1680.410645
6488.195070	0.100056	0.223523	1774.263306
6488.195981	0.099690	0.223523	1865.080811
6488.196885	0.101375	0.223523	1956.723389
6488.197778	0.101594	0.223523	2047.447021
6488.198722	0.099445	0.223523	2141.322754
6489.202650	0.673151	0.218951	302.244659
6489.203558	0.255029	0.218951	533.811279
6489.204453	0.249624	0.218951	757.224792
6489.205427	0.452816	0.218951	1198.267700
6489.206330	0.100096	0.218951	1288.654785
6489.207225	0.101316	0.218951	1379.332520
6489.208157	0.100583	0.218951	1473.076294
6489.209063	0.099525	0.218951	1563.246094
6489.209962	0.101613	0.218951	1654.595825
6489.210849	0.101360	0.218951	1744.502075
6489.211811	0.099547	0.218951	1840.266357
6489.212708	0.099957	0.218951	1929.927979
6489.213603	0.101766	0.218951	2021.008911
6489.214487	0.100616	0.218951	2109.953857
6490.219474	0.706553	0.224051	315.122528
6490.220373	0.255007	0.224051	544.374084
6490.221321	0.249346	0.224051	780.753784
6490.222253	0.488298	0.224051	1235.847900
6490.223155	0.101418	0.224051	1327.327393
6490.224045	0.101840	0.224051	1417.964600
6490.224983	0.100020	0.224051	1511.782959
6490.225885	0.099796	0.224051	1601.799072
6490.226784	0.102312	0.224051	1693.777588
6490.227667	0.101283	0.224051	1783.210449
6490.228612	0.099543	0.224051	1877.279053
6490.229521	0.099902	0.224051	1968.090332
6490.230418	0.101580	0.224051	2059.207275
6490.231366	0.100338	0.224051	2154.327881
6491.240389	0.721747	0.221002	312.516388
6491.241352	0.255264	0.221002	558.335327
6491.242265	0.249393	0.221002	786.031433
6491.243176	0.489152	0.221002	1231.648560
6491.244065	0.101371	0.221002	1321.767212
6491.245016	0.100155	0.221002	1417.014648
6491.245907	0.101151	0.221002	1507.140259
6491.246811	0.102169	0.221002	1599.501221
6491.247704	0.100715	0.221002	1689.440063
6491.248657	0.099752	0.221002	1784.503906
6491.249576	0.101605	0.221002	1877.879150
6491.250472	0.101514	0.221002	1968.835449
6491.251401	0.099913	0.221002	2061.655029
6491.252305	0.099478	0.221002	2151.582764
6492.252113	0.693783	0.227499	306.652039
6492.253012	0.254714	0.227499	535.640259
6492.253907	0.249705	0.227499	759.125854
6492.254868	0.497344	0.227499	1237.073242
6492.255773	0.099445	0.227499	1327.070557
6492.256681	0.101884	0.227499	1419.580811
6492.257571	0.100518	0.227499	1509.041504
6492.258509	0.099719	0.227499	1602.578125
6492.259420	0.100924	0.227499	1694.520020
6492.260312	0.102656	0.227499	1786.089355
6492.261245	0.100188	0.227499	1879.564697
6492.262145	0.099401	0.227499	1969.025269
6492.263045	0.101931	0.227499	2060.763184
6492.263934	0.101287	0.227499	2150.806885
6493.277658	0.705249	0.218283	314.541046
6493.278555	0.255337	0.218283	543.578247
6493.279516	0.249573	0.218283	783.417664
6493.280457	0.471724	0.218283	1227.309570
6493.281352	0.101125	0.218283	1317.816895
6493.282269	0.102129	0.218283	1411.469116
6493.283199	0.102396	0.218283	1506.697632
6493.284120	0.101334	0.218283	1600.026489
6493.285012	0.102052	0.218283	1691.056885
6493.285960	0.101957	0.218283	1787.711914
6493.286873	0.101726	0.218283	1880.587769
6493.287798	0.101100	0.218283	1974.105103
6493.288687	0.100481	0.218283	2063.432617
6493.289643	0.101342	0.218283	2160.315186
6494.283723	0.728474	0.226706	320.528595
6494.284687	0.255092	0.226706	566.436829
6494.285594	0.248925	0.226706	792.211426
6494.286508	0.495018	0.226706	1244.658203
6494.287418	0.100400	0.226706	1336.022583
6494.288357	0.099869	0.226706	1429.799927
6494.289265	0.101796	0.226706	1522.230347
6494.290165	0.102067	0.226706	1614.090332
6494.291093	0.099869	0.226706	1706.769165
6494.291986	0.099353	0.226706	1795.491455
6494.292888	0.101752	0.226706	1887.271484
6494.293774	0.100964	0.226706	1976.725952
6494.294705	0.099434	0.226706	2069.298584
6494.295607	0.100005	0.226706	2159.502930
6495.314904	0.678823	0.217368	302.076355
6495.315815	0.255209	0.217368	534.571533
6495.316717	0.249825	0.217368	759.914062
6495.317662	0.489932	0.217368	1222.899414
6495.318573	0.099452	0.217368	1313.500122
6495.319476	0.102887	0.217368	1406.407104
6495.320365	0.101796	0.217368	1496.903442
6495.321324	0.099814	0.217368	1592.625488
6495.322233	0.099965	0.217368	1683.493286
6495.323123	0.102144	0.217368	1774.401001
6495.324039	0.100979	0.217368	1866.897827
6495.324952	0.099313	0.217368	1957.570312
6495.325855	0.100975	0.217368	2048.750977
6495.326752	0.101437	0.217368	2139.739746
6496.316870	0.719183	0.229107	311.406403
6496.317826	0.255187	0.229107	555.364929
6496.318760	0.249240	0.229107	788.154663
6496.319675	0.462371	0.229107	1211.223755
6496.320562	0.100884	0.229107	1300.707642
6496.321520	0.099811	0.229107	1396.326416
6496.322429	0.101199	0.229107	1488.316040
6496.323327	0.102133	0.229107	1580.031128
6496.324214	0.101107	0.229107	1669.713135
6496.325144	0.099448	0.229107	1762.199951
6496.326050	0.102653	0.229107	1855.203247
6496.326939	0.101726	0.229107	1945.637695
6496.327874	0.100031	0.229107	2039.166260
6496.328791	0.100265	0.229107	2131.109131
6497.352160	0.673173	0.216885	306.293518
6497.353063	0.255282	0.216885	536.813171
6497.353997	0.249855	0.216885	770.177490
6497.354923	0.490942	0.216885	1224.790161
6497.355819	0.101917	0.216885	1316.107300
6497.356705	0.101785	0.216885	1406.288574
6497.357647	0.099899	0.216885	1500.393188
6497.358553	0.100364	0.216885	1591.322754
6497.359460	0.100953	0.216885	1682.887451
6497.360348	0.101027	0.216885	1772.599121
6497.361304	0.099551	0.216885	1867.769653
6497.362211	0.100679	0.216885	1959.085205
6497.363109	0.101265	0.216885	2050.020752
6497.364043	0.099866	0.216885	2143.295410
6498.350030	0.728203	0.230251	322.593994
6498.350922	0.254312	0.230251	549.439880
6498.351880	0.248738	0.230251	787.730713
6498.352809	0.476733	0.230251	1230.615967
6498.353702	0.100265	0.230251	1320.152466
6498.354622	0.100972	0.230251	1413.046387
6498.355558	0.100854	0.230251	1507.446167
6498.356459	0.101429	0.230251	1598.834106
6498.357350	0.102231	0.230251	1689.922363
6498.358299	0.100188	0.230251	1785.000732
6498.359208	0.101338	0.230251	1877.116943
6498.360131	0.100565	0.230251	1969.938599
6498.361018	0.101213	0.230251	2059.714844
6498.361960	0.101371	0.230251	2155.206299
6499.388371	0.692443	0.218053	307.444519
6499.389275	0.255201	0.218053	538.146606
6499.390168	0.249789	0.218053	761.208008
6499.391142	0.489144	0.218053	1237.634521
6499.392057	0.101261	0.218053	1330.288330
6499.392953	0.101975	0.218053	1421.657959
6499.393897	0.100283	0.218053	1516.325317
6499.394805	0.099723	0.218053	1606.873657
6499.395700	0.102213	0.218053	1698.354370
6499.396590	0.102063	0.218053	1789.190430
6499.397539	0.099650	0.218053	1883.757935
6499.398438	0.100126	0.218053	1973.770996
6499.399338	0.102224	0.218053	2065.772705
6499.400244	0.100492	0.218053	2156.818359
6500.383746	0.731202	0.225521	361.945160
6500.384666	0.255571	0.225521	597.070740
6500.385576	0.249185	0.225521	823.828674
6500.386472	0.491071	0.225521	1263.827881
6500.387425	0.099126	0.225521	1358.294922
6500.388338	0.100265	0.225521	1449.836792
6500.389239	0.101862	0.225521	1541.614014
6500.390153	0.101693	0.225521	1634.561523
6500.391088	0.099606	0.225521	1727.692871
6500.392003	0.100638	0.225521	1819.776978
6500.392897	0.101393	0.225521	1910.422119
6500.393835	0.099305	0.225521	2003.570557
6500.394734	0.099342	0.225521	2092.879150
6500.395632	0.101693	0.225521	2184.199463
6501.424591	0.706190	0.213304	310.017487
6501.425492	0.254583	0.213304	539.396362
6501.426385	0.249921	0.213304	762.575500
6501.427364	0.492393	0.213304	1244.627808
6501.428272	0.100005	0.213304	1335.432251
6501.429166	0.102107	0.213304	1426.715820
6501.430077	0.101045	0.213304	1518.767700
6501.430997	0.100122	0.213304	1610.880005
6501.431905	0.101049	0.213304	1702.632080
6501.432804	0.101404	0.213304	1793.794067
6501.433728	0.099899	0.213304	1886.100464
6501.434632	0.099814	0.213304	1976.332764
6501.435535	0.102554	0.213304	2068.938721
6501.436426	0.100558	0.213304	2158.535889
6502.417394	0.604358	0.228055	284.652557
6502.418321	0.255417	0.228055	521.424561
6502.419222	0.249408	0.228055	746.141113
6502.420181	0.428159	0.228055	1156.745728
6502.421081	0.099148	0.228055	1245.978882
6502.421979	0.100638	0.228055	1336.352173
6502.422870	0.101488	0.228055	1426.778076
6502.423811	0.099675	0.228055	1520.572510
6502.424718	0.100038	0.228055	1611.306885
6502.425624	0.100902	0.228055	1702.724243
6502.426516	0.100660	0.228055	1792.513306
6502.427462	0.099229	0.228055	1886.383423
6502.428359	0.100994	0.228055	1976.974731
6502.429255	0.101030	0.228055	2067.497803
6503.460839	0.650424	0.217207	296.593170
6503.461762	0.255048	0.217207	532.002075
6503.462663	0.249690	0.217207	756.972717
6503.463569	0.426998	0.217207	1143.833130
6503.464501	0.099646	0.217207	1236.703247
6503.465408	0.102784	0.217207	1329.928711
6503.466301	0.103510	0.217207	1422.362671
6503.467227	0.100521	0.217207	1515.445312
6503.468139	0.100778	0.217207	1607.354492
6503.469037	0.102876	0.217207	1699.737061
6503.469926	0.101495	0.217207	1789.966431
6503.470871	0.099305	0.217207	1883.810059
6503.471780	0.100646	0.217207	1975.296997
6503.472678	0.100939	0.217207	2065.939941
6504.452049	0.686660	0.226226	305.563751
6504.452944	0.255135	0.226226	533.910034
6504.453915	0.249342	0.226226	776.021179
6504.454840	0.481110	0.226226	1221.047607
6504.455728	0.101847	0.226226	1311.487671
6504.456667	0.100525	0.226226	1405.880615
6504.457577	0.099778	0.226226	1496.678467
6504.458480	0.101898	0.226226	1588.692505
6504.459370	0.101979	0.226226	1679.453613
6504.460312	0.099543	0.226226	1773.223511
6504.461215	0.099847	0.226226	1863.385742
6504.462119	0.101741	0.226226	1955.359375
6504.463006	0.100756	0.226226	2044.729614
6504.463942	0.099481	0.226226	2137.843994
6505.495508	0.700488	0.218770	308.915314
6505.496451	0.254714	0.218770	549.110962
6505.497362	0.249210	0.218770	776.141479
6505.498273	0.487024	0.218770	1219.820312
6505.499154	0.102356	0.218770	1309.995850
6505.500097	0.100126	0.218770	1404.414429
6505.501003	0.100865	0.218770	1495.798584
6505.501906	0.102004	0.218770	1587.908569
6505.502792	0.101927	0.218770	1678.216309
6505.503745	0.099771	0.218770	1773.297607
6505.504653	0.100518	0.218770	1864.567627
6505.505556	0.101371	0.218770	1956.105469
6505.506483	0.099836	0.218770	2048.653809
6505.507387	0.098990	0.218770	2138.141113
6506.486784	0.730353	0.224998	357.142487
6506.487701	0.255033	0.224998	591.007690
6506.488616	0.248529	0.224998	818.411743
6506.489510	0.482622	0.224998	1249.875854
6506.490463	0.099082	0.224998	1344.301025
6506.491374	0.101151	0.224998	1436.449707
6506.492265	0.102103	0.224998	1527.423706
6506.493157	0.102253	0.224998	1618.633789
6506.494096	0.100012	0.224998	1712.545288
6506.494997	0.101957	0.224998	1804.408325
6506.495887	0.101587	0.224998	1894.820679
6506.496817	0.100851	0.224998	1988.611938
6506.497726	0.100042	0.224998	2079.549561
6506.498622	0.101572	0.224998	2170.558350
6507.530728	0.623060	0.219076	292.838348
6507.531634	0.255253	0.219076	524.097290
6507.532531	0.249635	0.219076	748.019897
6507.533493	0.484523	0.219076	1214.130737
6507.534405	0.100902	0.219076	1306.153442
6507.535300	0.101671	0.219076	1397.149170
6507.536232	0.101104	0.219076	1491.377686
6507.537133	0.099836	0.219076	1581.330322
6507.538047	0.102169	0.219076	1674.713013
6507.538941	0.101993	0.219076	1765.895142
6507.539877	0.099342	0.219076	1858.879272
6507.540777	0.099258	0.219076	1948.211304
6507.541676	0.101100	0.219076	2039.100098
6507.542561	0.100638	0.219076	2128.165039
6508.521926	0.722311	0.229630	314.927521
6508.522900	0.254498	0.229630	562.808838
6508.523806	0.248895	0.229630	788.307922
6508.524720	0.477883	0.229630	1225.093262
6508.525616	0.100869	0.229630	1315.472046
6508.526555	0.099825	0.229630	1409.208130
6508.527457	0.100217	0.229630	1499.604126
6508.528361	0.101583	0.229630	1591.435425
6508.529250	0.101085	0.229630	1681.300171
6508.530200	0.099679	0.229630	1775.995117
6508.531114	0.101711	0.229630	1868.959351
6508.532006	0.101429	0.229630	1959.434448
6508.532945	0.099767	0.229630	2053.115479
6508.533856	0.099434	0.229630	2143.699463
6509.564887	0.686898	0.219709	308.417267
6509.565787	0.255125	0.219709	538.029297
6509.566726	0.249807	0.219709	772.598206
6509.567648	0.489368	0.219709	1223.795166
6509.568542	0.100884	0.219709	1313.985229
6509.569430	0.101807	0.219709	1404.389526
6509.570379	0.100287	0.219709	1499.561768
6509.571276	0.101737	0.219709	1590.819946
6509.572167	0.102177	0.219709	1681.859253
6509.573090	0.102275	0.219709	1776.259399
6509.574005	0.099785	0.219709	1867.562866
6509.574911	0.101840	0.219709	1959.829590
6509.575804	0.101305	0.219709	2050.294922
6509.576738	0.099668	0.219709	2143.384766
6510.556635	0.687228	0.227934	307.878052
6510.557562	0.254894	0.227934	544.164551
6510.558463	0.249393	0.227934	768.867920
6510.559430	0.469684	0.227934	1223.052246
6510.560322	0.098990	0.227934	1311.351807
6510.561220	0.103506	0.227934	1404.300049
6510.562109	0.101909	0.227934	1494.897339
6510.563036	0.099998	0.227934	1587.595093
6510.563936	0.100082	0.227934	1677.668701
6510.564843	0.102133	0.227934	1770.302979
6510.565731	0.101605	0.227934	1860.528442
6510.566679	0.099617	0.227934	1954.965088
6510.567586	0.100920	0.227934	2046.499878
6510.568478	0.101506	0.227934	2137.043457
6511.598535	0.728148	0.218726	316.744446
6511.599479	0.255436	0.218726	557.875854
6511.600398	0.249514	0.218726	787.179321
6511.601314	0.494399	0.218726	1240.049194
6511.602202	0.100983	0.218726	1329.721802
6511.603162	0.100170	0.218726	1425.884644
6511.604072	0.101620	0.218726	1518.358765
6511.604968	0.101774	0.218726	1609.547974
6511.605917	0.100269	0.218726	1704.702881
6511.606816	0.099408	0.218726	1794.070679
6511.607716	0.101598	0.218726	1885.508789
6511.608606	0.101678	0.218726	1976.002686
6511.609544	0.099214	0.218726	2069.065186
6511.610448	0.099353	0.218726	2158.880371
6512.592339	0.706282	0.226037	309.351379
6512.593285	0.255139	0.226037	550.713013
6512.594210	0.249324	0.226037	781.337463
6512.595119	0.489089	0.226037	1225.919678
6512.596000	0.102158	0.226037	1315.921021
6512.596923	0.100481	0.226037	1408.664917
6512.597830	0.101393	0.226037	1500.628174
6512.598748	0.101715	0.226037	1594.002686
6512.599645	0.102177	0.226037	1685.655029
6512.600603	0.100708	0.226037	1782.133301
6512.601506	0.101503	0.226037	1873.790283
6512.602394	0.102521	0.226037	1964.828735
6512.603324	0.100770	0.226037	2058.545166
6512.604238	0.101199	0.226037	2151.040771
6513.632259	0.701550	0.222553	349.372040
6513.633175	0.255546	0.222553	583.451843
6513.634093	0.248840	0.222553	811.887268
6513.635002	0.474712	0.222553	1243.400391
6513.635942	0.099503	0.222553	1336.933350
6513.636853	0.100466	0.222553	1428.458130
6513.637751	0.103110	0.222553	1521.051270
6513.638640	0.100946	0.222553	1610.792358
6513.639588	0.099694	0.222553	1705.301880
6513.640501	0.100470	0.222553	1797.031006
6513.641392	0.101477	0.222553	1887.447021
6513.642320	0.100353	0.222553	1980.574463
6513.643229	0.099265	0.222553	2070.806396
6513.644133	0.101444	0.222553	2162.511963
6514.628554	0.715023	0.230142	313.895172
6514.629516	0.255535	0.230142	559.719543
6514.630446	0.249067	0.230142	791.352173
6514.631355	0.492114	0.230142	1238.684082
6514.632287	0.100682	0.230142	1332.520020
6514.633197	0.100093	0.230142	1423.604492
6514.634107	0.102235	0.230142	1516.638428
6514.634997	0.101737	0.230142	1607.184448
6514.635944	0.099840	0.230142	1701.733032
6514.636848	0.100470	0.230142	1792.557861
6514.637747	0.100957	0.230142	1883.318237
6514.638635	0.100682	0.230142	1972.724121
6514.639575	0.099155	0.230142	2065.930176
6514.640480	0.100100	0.230142	2156.520752
6515.665351	0.719224	0.220663	312.862274
6515.666314	0.254956	0.220663	558.384949
6515.667244	0.249100	0.220663	790.048218
6515.668153	0.468234	0.220663	1215.672607
6515.669036	0.101627	0.220663	1305.409424
6515.669983	0.100129	0.220663	1400.231934
6515.670892	0.101759	0.220663	1492.730957
6515.671822	0.102114	0.220663	1587.697266
6515.672714	0.101488	0.220663	1678.224609
6515.673666	0.101169	0.220663	1774.537964
6515.674565	0.101627	0.220663	1865.900879
6515.675455	0.102198	0.220663	1956.857544
6515.676393	0.099628	0.220663	2050.308350
6515.677313	0.100902	0.220663	2143.138184
6516.665333	0.729316	0.228893	352.989136
6516.666253	0.255410	0.228893	587.966492
6516.667151	0.249397	0.228893	811.924988
6516.668049	0.478623	0.228893	1241.728516
6516.668984	0.099474	0.228893	1334.736572
6516.669892	0.100983	0.228893	1426.428833
6516.670797	0.102246	0.228893	1518.961548
6516.671690	0.101678	0.228893	1609.760376
6516.672644	0.099624	0.228893	1704.801758
6516.673547	0.100884	0.228893	1795.899780
6516.674440	0.101862	0.228893	1886.862183
6516.675384	0.100045	0.228893	1981.304810
6516.676291	0.099144	0.228893	2071.228760
6516.677184	0.101382	0.228893	2161.762695
6517.697483	0.704491	0.219870	311.385010
6517.698382	0.255018	0.219870	540.646484
6517.699366	0.249163	0.219870	785.822449
6517.700289	0.485094	0.219870	1233.564209
6517.701182	0.100972	0.219870	1323.731934
6517.702110	0.100397	0.219870	1416.900146
6517.703014	0.100312	0.219870	1507.582642
6517.703923	0.101642	0.219870	1599.975098
6517.704812	0.101711	0.219870	1690.396606
6517.705768	0.099547	0.219870	1785.563599
6517.706678	0.100444	0.219870	1876.967896
6517.707566	0.101847	0.219870	1967.407959
6517.708486	0.100192	0.219870	2059.584229
6517.709407	0.099177	0.219870	2150.926514
6518.702587	0.577207	0.229594	278.790985
6518.703511	0.255081	0.229594	514.485474
6518.704425	0.248584	0.229594	741.691223
6518.705322	0.483845	0.229594	1175.700439
6518.706286	0.099316	0.229594	1271.441406
6518.707196	0.101184	0.229594	1363.518921
6518.708087	0.101327	0.229594	1453.801147
6518.709028	0.100371	0.229594	1548.250366
6518.709931	0.100283	0.229594	1638.806152
6518.710827	0.102019	0.229594	1730.215210
6518.711713	0.101572	0.229594	1820.208252
6518.712651	0.099357	0.229594	1913.404785
6518.713574	0.101019	0.229594	2006.645630
6518.714474	0.100770	0.229594	2097.338867
6519.730634	0.718766	0.220712	311.944366
6519.731536	0.254857	0.220712	541.825562
6519.732505	0.249152	0.220712	783.253479
6519.733427	0.487551	0.220712	1232.775757
6519.734317	0.101038	0.220712	1322.699219
6519.735262	0.100477	0.220712	1417.650269
6519.736162	0.100104	0.220712	1507.743652
6519.737059	0.102448	0.220712	1599.639038
6519.737948	0.101169	0.220712	1689.578613
6519.738888	0.099558	0.220712	1783.163208
6519.739793	0.099924	0.220712	1873.594727
6519.740688	0.102638	0.220712	1965.455688
6519.741602	0.100137	0.220712	2056.980713
6519.742518	0.099104	0.220712	2147.760010
6520.739273	0.705765	0.227000	309.125244
6520.740173	0.255040	0.227000	538.661499
6520.741066	0.250364	0.227000	762.236328
6520.742026	0.494729	0.227000	1237.176147
6520.742930	0.099518	0.227000	1327.140259
6520.743831	0.101616	0.227000	1418.696411
6520.744722	0.101111	0.227000	1508.786133
6520.745674	0.099760	0.227000	1603.757202
6520.746580	0.100924	0.227000	1695.194458
6520.747473	0.102213	0.227000	1786.470825
6520.748406	0.099965	0.227000	1879.737793
6520.749312	0.099756	0.227000	1970.116577
6520.750216	0.100712	0.227000	2061.159912
6520.751107	0.102242	0.227000	2152.257812
6521.761819	0.570029	0.219592	297.555298
6521.762736	0.255209	0.219592	531.581726
6521.763638	0.248650	0.219592	755.863953
6521.764534	0.488866	0.219592	1193.887939
6521.765474	0.099569	0.219592	1287.482910
6521.766379	0.100822	0.219592	1378.726440
6521.767276	0.102729	0.219592	1470.874756
6521.768208	0.100774	0.219592	1564.796021
6521.769112	0.099928	0.219592	1655.130859
6521.770011	0.102166	0.219592	1746.977661
6521.770901	0.101554	0.219592	1837.360718
6521.771849	0.099335	0.219592	1931.530029
6521.772742	0.099558	0.219592	2020.435425
6521.773636	0.102279	0.219592	2111.872803
6522.776027	0.672971	0.226106	301.491089
6522.776928	0.255055	0.226106	531.295593
6522.777829	0.249606	0.226106	756.190308
6522.778807	0.488701	0.226106	1234.140137
6522.779716	0.100613	0.226106	1325.597168
6522.780610	0.102246	0.226106	1417.005127
6522.781539	0.100437	0.226106	1510.311157
6522.782443	0.099979	0.226106	1600.692383
6522.783347	0.102440	0.226106	1693.298340
6522.784237	0.101521	0.226106	1783.651978
6522.785175	0.099620	0.226106	1877.095825
6522.786080	0.100646	0.226106	1968.180176
6522.786984	0.102422	0.226106	2060.769531
6522.787872	0.100488	0.226106	2150.003174
6523.794888	0.718209	0.222722	315.293854
6523.795850	0.255322	0.222722	560.913879
6523.796775	0.248730	0.222722	790.989563
6523.797714	0.486361	0.222722	1247.682617
6523.798600	0.099811	0.222722	1336.114990
6523.799556	0.101558	0.222722	1433.204102
6523.800455	0.102477	0.222722	1525.330811
6523.801348	0.103169	0.222722	1617.460693
6523.802279	0.100411	0.222722	1710.943726
6523.803178	0.102693	0.222722	1803.264648
6523.804098	0.102579	0.222722	1897.637695
6523.804991	0.100953	0.222722	1987.789062
6523.805923	0.099716	0.222722	2080.723877
6523.806829	0.100909	0.222722	2172.147705
6524.813268	0.719758	0.222536	316.693634
6524.814167	0.254960	0.222536	545.902405
6524.815127	0.249617	0.222536	785.534424
6524.816048	0.482611	0.222536	1230.019165
6524.816948	0.101096	0.222536	1321.005737
6524.817874	0.100580	0.222536	1414.142700
6524.818773	0.100239	0.222536	1504.257812
6524.819667	0.102484	0.222536	1595.878662
6524.820562	0.101803	0.222536	1686.992310
6524.821492	0.099540	0.222536	1779.564331
6524.822390	0.099924	0.222536	1869.296387
6524.823295	0.102462	0.222536	1962.024658
6524.824186	0.101093	0.222536	2052.098145
6524.825138	0.099192	0.222536	2146.528809
6525.828107	0.564536	0.221445	280.009918
6525.829025	0.255476	0.221445	514.536987
6525.829933	0.249027	0.221445	740.653564
6525.830833	0.483029	0.221445	1175.379272
6525.831773	0.099419	0.221445	1268.833130
6525.832684	0.101323	0.221445	1361.138550
6525.833588	0.102729	0.221445	1454.005981
6525.834519	0.100353	0.221445	1547.434448
6525.835428	0.099822	0.221445	1638.172485
6525.836335	0.102598	0.221445	1731.228516
6525.837223	0.101993	0.221445	1821.798706
6525.838164	0.099324	0.221445	1915.262329
6525.839069	0.100067	0.221445	2005.823120
6525.839967	0.101115	0.221445	2096.624023
6526.849998	0.718744	0.221449	314.809845
6526.850892	0.255077	0.221449	542.848633
6526.851851	0.249880	0.221449	782.483887
6526.852784	0.482435	0.221449	1232.595947
6526.853686	0.102854	0.221449	1325.370239
6526.854589	0.101125	0.221449	1416.686523
6526.855543	0.100151	0.221449	1512.230957
6526.856446	0.101700	0.221449	1604.066406
6526.857337	0.101499	0.221449	1694.502075
6526.858277	0.099745	0.221449	1788.262207
6526.859190	0.101616	0.221449	1881.037842
6526.860083	0.101243	0.221449	1971.447510
6526.860976	0.100437	0.221449	2061.137695
6526.861916	0.099038	0.221449	2154.233398
6527.861248	0.553792	0.222496	270.804047
6527.862167	0.255494	0.222496	505.603394
6527.863072	0.249192	0.222496	731.122070
6527.863971	0.480234	0.222496	1162.852783
6527.864923	0.099232	0.222496	1257.321777
6527.865834	0.100902	0.222496	1349.243652
6527.866728	0.101309	0.222496	1439.813477
6527.867669	0.100353	0.222496	1534.245483
6527.868569	0.099880	0.222496	1624.137817
6527.869467	0.101283	0.222496	1715.089966
6527.870353	0.101488	0.222496	1805.008423
6527.871291	0.099357	0.222496	1898.204956
6527.872196	0.099979	0.222496	1988.686157
6527.873106	0.102169	0.222496	2081.660156
6528.886230	0.706974	0.221215	315.310364
6528.887135	0.255278	0.221215	546.337280
6528.888032	0.249924	0.221215	770.519409
6528.889006	0.468962	0.221215	1227.288818
6528.889899	0.100994	0.221215	1317.476196
6528.890793	0.102616	0.221215	1409.214844
6528.891728	0.099994	0.221215	1502.709106
6528.892638	0.101382	0.221215	1594.966553
6528.893558	0.100939	0.221215	1687.830200
6528.894456	0.100829	0.221215	1778.374512
6528.895395	0.100078	0.221215	1872.347900
6528.896315	0.100814	0.221215	1965.096924
6528.897237	0.100551	0.221215	2057.804443
6528.898124	0.101027	0.221215	2147.415039
6529.894871	0.666266	0.220422	295.155762
6529.895794	0.255059	0.220422	530.574829
6529.896697	0.249825	0.220422	756.167236
6529.897647	0.488796	0.220422	1220.523804
6529.898549	0.099705	0.220422	1310.457397
6529.899455	0.102491	0.220422	1403.314697
6529.900344	0.101418	0.220422	1493.475708
6529.901289	0.100074	0.220422	1588.046021
6529.902191	0.101268	0.220422	1679.390015
6529.903084	0.102067	0.220422	1770.535522
6529.904014	0.100902	0.220422	1864.374512
6529.904909	0.099423	0.220422	1953.357788
6529.905813	0.100774	0.220422	2044.457397
6529.906709	0.102177	0.220422	2136.007568
6530.921946	0.677249	0.220414	299.343842
6530.922852	0.254619	0.220414	530.028809
6530.923753	0.249752	0.220414	755.055542
6530.924689	0.433381	0.220414	1160.700439
6530.925612	0.100074	0.220414	1253.069214
6530.926507	0.102048	0.220414	1344.402466
6530.927399	0.101975	0.220414	1435.364258
6530.928338	0.100126	0.220414	1529.382324
6530.929234	0.101682	0.220414	1620.489502
6530.930152	0.101539	0.220414	1713.702637
6530.931048	0.101865	0.220414	1804.973877
6530.931993	0.100302	0.220414	1899.758789
6530.932895	0.101470	0.220414	1991.284424
6530.933784	0.101294	0.220414	2081.334717
6531.928546	0.691300	0.223612	315.924103
6531.929444	0.255055	0.223612	544.963440
6531.930365	0.249635	0.223612	774.877319
6531.931307	0.490056	0.223612	1236.510254
6531.932208	0.100825	0.223612	1327.353760
6531.933107	0.102070	0.223612	1419.114990
6531.934043	0.100646	0.223612	1513.319458
6531.934948	0.100327	0.223612	1604.115479
6531.935850	0.102719	0.223612	1696.767578
6531.936737	0.100891	0.223612	1786.258057
6531.937684	0.099415	0.223612	1880.404297
6531.938588	0.100349	0.223612	1971.119873
6531.939476	0.102828	0.223612	2062.431396
6531.940402	0.100887	0.223612	2155.853271
6532.956618	0.718107	0.220595	315.248840
6532.957511	0.254403	0.220595	542.430786
6532.958491	0.248782	0.220595	786.236877
6532.959403	0.486130	0.220595	1229.587769
6532.960297	0.100961	0.220595	1319.846680
6532.961228	0.100884	0.220595	1413.769531
6532.962139	0.101741	0.220595	1506.455322
6532.963040	0.102524	0.220595	1598.829834
6532.963930	0.103250	0.220595	1690.721924
6532.964881	0.100074	0.220595	1785.892700
6532.965780	0.101488	0.220595	1877.130493
6532.966692	0.101488	0.220595	1969.687622
6532.967588	0.101741	0.220595	2060.847412
6532.968549	0.101305	0.220595	2158.201416
6533.962696	0.721739	0.222448	311.791443
6533.963644	0.255143	0.222448	553.666870
6533.964561	0.249547	0.222448	782.501587
6533.965476	0.467999	0.222448	1210.720947
6533.966361	0.101715	0.222448	1300.738770
6533.967314	0.100217	0.222448	1396.245850
6533.968215	0.101199	0.222448	1487.425903
6533.969113	0.102781	0.222448	1579.723022
6533.969997	0.101924	0.222448	1669.823730
6533.970934	0.099613	0.222448	1763.161133
6533.971842	0.100576	0.222448	1854.484253
6533.972742	0.101580	0.222448	1945.905884
6533.973679	0.100642	0.222448	2040.207520
6533.974586	0.099060	0.222448	2130.054932
6534.992339	0.686990	0.219108	307.771393
6534.993241	0.254762	0.219108	537.566650
6534.994135	0.249364	0.219108	760.498047
6534.995122	0.485068	0.219108	1239.260498
6534.996028	0.101243	0.219108	1330.986328
6534.996920	0.101997	0.219108	1421.967773
6534.997855	0.100477	0.219108	1515.914062
6534.998766	0.102572	0.219108	1609.357178
6534.999687	0.101093	0.219108	1702.463379
6535.000580	0.101898	0.219108	1793.458496
6535.001526	0.099928	0.219108	1887.990356
6535.002425	0.102444	0.219108	1980.087402
6535.003315	0.102257	0.219108	2071.096191
6535.004226	0.100613	0.219108	2162.754395
6535.997913	0.691113	0.221517	305.472046
6535.998820	0.254777	0.221517	536.554443
6535.999716	0.249650	0.221517	760.240540
6536.000682	0.495645	0.221517	1239.033203
6536.001586	0.100624	0.221517	1329.997070
6536.002476	0.101166	0.221517	1420.034668
6536.003407	0.101594	0.221517	1514.618896
6536.004312	0.099917	0.221517	1605.043823
6536.005215	0.101096	0.221517	1696.333740
6536.006102	0.101239	0.221517	1786.132690
6536.007049	0.099229	0.221517	1880.102051
6536.007947	0.099382	0.221517	1969.347412
6536.008849	0.101202	0.221517	2060.632080
6536.009736	0.101096	0.221517	2150.304443
6537.027080	0.577090	0.220369	282.774017
6537.028000	0.255615	0.220369	517.940063
6537.028905	0.249298	0.220369	743.554871
6537.029819	0.445917	0.220369	1151.122803
6537.030748	0.099397	0.220369	1243.462646
6537.031665	0.100822	0.220369	1335.916016
6537.032564	0.101917	0.220369	1427.538940
6537.033494	0.100441	0.220369	1520.948730
6537.034405	0.100078	0.220369	1612.119873
6537.035308	0.101404	0.220369	1703.687500
6537.036194	0.101360	0.220369	1793.492310
6537.037137	0.099536	0.220369	1887.354858
6537.038043	0.099738	0.220369	1977.717041
6537.038935	0.103059	0.220369	2069.645752
6538.032589	0.732188	0.222988	319.965942
6538.033545	0.255194	0.222988	563.931519
6538.034454	0.249034	0.222988	790.303772
6538.035369	0.488386	0.222988	1237.177124
6538.036255	0.100807	0.222988	1326.492065
6538.037199	0.100122	0.222988	1421.007324
6538.038107	0.101096	0.222988	1512.802612
6538.038995	0.101367	0.222988	1602.816650
6538.039926	0.100331	0.222988	1696.224609
6538.040827	0.099434	0.222988	1785.814331
6538.041725	0.101364	0.222988	1876.838745
6538.042616	0.101796	0.222988	1967.538696
6538.043582	0.099064	0.222988	2063.234131
6538.044477	0.099631	0.222988	2152.404297
6539.061720	0.700261	0.222972	309.515472
6539.062617	0.254894	0.222972	538.155212
6539.063574	0.249338	0.222972	776.772034
6539.064505	0.478015	0.222972	1221.804077
6539.065402	0.101832	0.222972	1313.147583
6539.066318	0.102140	0.222972	1406.707764
6539.067246	0.100151	0.222972	1499.648193
6539.068156	0.101796	0.222972	1592.282227
6539.069053	0.101708	0.222972	1683.514038
6539.069979	0.100034	0.222972	1776.145630
6539.070893	0.099836	0.222972	1867.396118
6539.071797	0.100931	0.222972	1958.638062
6539.072685	0.101239	0.222972	2048.538330
6539.073638	0.099045	0.222972	2142.928711
6540.067815	0.692450	0.221711	313.679840
6540.068713	0.255110	0.221711	542.768494
6540.069605	0.250144	0.221711	765.896973
6540.070552	0.457189	0.221711	1198.854736
6540.071466	0.101140	0.221711	1291.296875
6540.072370	0.100836	0.221711	1382.452759
6540.073261	0.102312	0.221711	1473.612793
6540.074196	0.099869	0.221711	1566.990723
6540.075110	0.101675	0.221711	1659.921509
6540.076029	0.101104	0.221711	1752.835693
6540.076921	0.100679	0.221711	1842.641113
6540.077870	0.100503	0.221711	1938.018433
6540.078765	0.101865	0.221711	2029.187866
6540.079655	0.102235	0.221711	2120.177002
6541.095885	0.715448	0.221594	314.797089
6541.096841	0.255417	0.221594	558.976196
6541.097762	0.249053	0.221594	788.353760
6541.098668	0.494711	0.221594	1236.561646
6541.099608	0.100166	0.221594	1330.717651
6541.100514	0.100276	0.221594	1421.567627
6541.101415	0.102920	0.221594	1514.298462
6541.102303	0.102312	0.221594	1605.151489
6541.103258	0.099899	0.221594	1700.554687
6541.104155	0.099781	0.221594	1790.058716
6541.105057	0.102612	0.221594	1882.614990
6541.105944	0.100023	0.221594	1971.335571
6541.106881	0.099207	0.221594	2064.291992
6541.107790	0.100012	0.221594	2155.203125
6542.103040	0.592687	0.222625	291.601898
6542.103964	0.255399	0.222625	527.590698
6542.104870	0.248793	0.222625	752.996887
6542.105767	0.492074	0.222625	1194.387207
6542.106726	0.099269	0.222625	1289.585937
6542.107637	0.101188	0.222625	1381.767944
6542.108534	0.101708	0.222625	1472.999756
6542.109469	0.100334	0.222625	1566.812500
6542.110371	0.099529	0.222625	1656.587524
6542.111274	0.102118	0.222625	1748.800049
6542.112163	0.102367	0.222625	1839.804199
6542.113096	0.099646	0.222625	1932.773926
6542.113999	0.099672	0.222625	2022.777466
6542.114903	0.101591	0.222625	2114.615234
6543.131092	0.690619	0.221276	306.634796
6543.131991	0.255165	0.221276	536.027954
6543.132886	0.249866	0.221276	759.657776
6543.133865	0.484288	0.221276	1233.776123
6543.134769	0.101122	0.221276	1325.190308
6543.135662	0.102048	0.221276	1416.319458
6543.136611	0.100708	0.221276	1511.891357
6543.137526	0.100920	0.221276	1604.233521
6543.138421	0.103330	0.221276	1696.713989
6543.139317	0.100891	0.221276	1787.112427
6543.140256	0.099218	0.221276	1880.277710
6543.141173	0.102550	0.221276	1974.316162
6543.142078	0.101462	0.221276	2066.139648
6543.142974	0.100243	0.221276	2155.957275
6544.139265	0.729800	0.223926	361.250916
6544.140187	0.255366	0.223926	596.698547
6544.141096	0.248756	0.223926	822.817871
6544.141994	0.476631	0.223926	1250.832397
6544.142959	0.099166	0.223926	1346.527832
6544.143858	0.100272	0.223926	1436.672607
6544.144762	0.101422	0.223926	1528.358154
6544.145646	0.101334	0.223926	1617.937622
6544.146577	0.099551	0.223926	1710.619385
6544.147489	0.100309	0.223926	1802.101074
6544.148391	0.101331	0.223926	1893.501221
6544.149320	0.100419	0.223926	1986.790161
6544.150225	0.099291	0.223926	2076.648193
6544.151127	0.101547	0.223926	2168.243164
6545.164270	0.650929	0.220695	301.380096
6545.165186	0.254861	0.220695	534.832642
6545.166086	0.249236	0.220695	759.144897
6545.167031	0.380944	0.220695	1119.136597
6545.167951	0.100785	0.220695	1211.858765
6545.168873	0.102242	0.220695	1306.126221
6545.169788	0.101620	0.220695	1399.108398
6545.170740	0.101089	0.220695	1495.344971
6545.171639	0.102264	0.220695	1587.280640
6545.172560	0.101060	0.220695	1680.356445
6545.173448	0.100822	0.220695	1769.885986
6545.174415	0.101136	0.220695	1867.684937
6545.175334	0.100653	0.220695	1960.185059
6545.176226	0.101554	0.220695	2050.771240
6546.175439	0.703140	0.222508	310.787720
6546.176413	0.255172	0.222508	559.325317
6546.177335	0.248529	0.222508	788.469116
6546.178233	0.479008	0.222508	1218.617920
6546.179168	0.099551	0.222508	1311.697876
6546.180081	0.099807	0.222508	1402.821777
6546.180978	0.101656	0.222508	1494.007690
6546.181867	0.101609	0.222508	1584.338013
6546.182804	0.099675	0.222508	1677.733765
6546.183713	0.100726	0.222508	1769.293945
6546.184620	0.102678	0.222508	1862.423096
6546.185510	0.101136	0.222508	1952.434570
6546.186447	0.099338	0.222508	2045.514648
6546.187354	0.101268	0.222508	2137.364990
6547.197914	0.686752	0.222492	306.291260
6547.198844	0.254978	0.222492	543.420837
6547.199768	0.249507	0.222492	773.965149
6547.200697	0.488309	0.222492	1227.604492
6547.201590	0.101136	0.222492	1317.919312
6547.202526	0.100137	0.222492	1411.647217
6547.203433	0.100353	0.222492	1502.667236
6547.204333	0.103118	0.222492	1595.473145
6547.205226	0.101825	0.222492	1686.402832
6547.206173	0.099430	0.222492	1780.562988
6547.207082	0.100074	0.222492	1871.530640
6547.207984	0.101173	0.222492	1962.788818
6547.208905	0.100005	0.222492	2054.893311
6547.209806	0.099093	0.222492	2144.176025
6548.211654	0.731034	0.223749	320.192871
6548.212611	0.255476	0.223749	564.683472
6548.213527	0.249225	0.223749	792.973389
6548.214444	0.488009	0.223749	1240.477661
6548.215336	0.100052	0.223749	1329.724487
6548.216276	0.100001	0.223749	1423.725586
6548.217185	0.101396	0.223749	1515.895020
6548.218078	0.103253	0.223749	1608.100098
6548.219019	0.100620	0.223749	1702.783691
6548.219925	0.099994	0.223749	1793.378174
6548.220822	0.101957	0.223749	1884.833374
6548.221710	0.101016	0.223749	1974.535278
6548.222645	0.099148	0.223749	2067.238525
6548.223546	0.100518	0.223749	2157.804932
6549.231564	0.723215	0.224478	316.768311
6549.232461	0.254890	0.224478	545.404785
6549.233441	0.249104	0.224478	789.526733
6549.234353	0.471237	0.224478	1219.294434
6549.235244	0.102173	0.224478	1310.330444
6549.236166	0.101005	0.224478	1403.456665
6549.237098	0.101115	0.224478	1497.695435
6549.238000	0.102931	0.224478	1590.539062
6549.238892	0.101400	0.224478	1680.988037
6549.239827	0.099943	0.224478	1774.434448
6549.240738	0.101158	0.224478	1866.589844
6549.241658	0.100583	0.224478	1959.126709
6549.242546	0.101517	0.224478	2049.274170
6549.243493	0.100411	0.224478	2144.363770
6550.249938	0.686924	0.222037	307.054932
6550.250843	0.254773	0.222037	537.624451
6550.251737	0.249635	0.222037	760.798157
6550.252715	0.485460	0.222037	1235.578247
6550.253624	0.101733	0.222037	1328.053955
6550.254520	0.101982	0.222037	1419.430176
6550.255456	0.100800	0.222037	1513.778564
6550.256349	0.099738	0.222037	1602.844238
6550.257253	0.101448	0.222037	1694.552979
6550.258143	0.100770	0.222037	1784.238525
6550.259075	0.099089	0.222037	1876.589844
6550.259972	0.099565	0.222037	1965.900024
6550.260883	0.101635	0.222037	2058.489014
6550.261773	0.100115	0.222037	2147.591064
6551.264716	0.728174	0.225107	318.940125
6551.265689	0.254960	0.225107	567.015930
6551.266593	0.248694	0.225107	791.835205
6551.267508	0.489152	0.225107	1239.408936
6551.268424	0.100349	0.225107	1331.328735
6551.269355	0.100122	0.225107	1424.542358
6551.270261	0.101389	0.225107	1516.400879
6551.271164	0.102272	0.225107	1608.752197
6551.272098	0.099803	0.225107	1701.968628
6551.272995	0.099536	0.225107	1791.252563
6551.273896	0.101290	0.225107	1882.515137
6551.274784	0.100562	0.225107	1971.813721
6551.275723	0.098866	0.225107	2064.648926
6551.276632	0.099734	0.225107	2155.307129
6552.287186	0.720304	0.219656	319.094666
6552.288079	0.254875	0.219656	546.698486
6552.289027	0.249635	0.219656	783.352478
6552.289955	0.491492	0.219656	1239.456787
6552.290855	0.100887	0.219656	1330.255493
6552.291786	0.101312	0.219656	1424.577148
6552.292689	0.099738	0.219656	1514.640137
6552.293581	0.101763	0.219656	1605.412476
6552.294471	0.101576	0.219656	1695.815063
6552.295427	0.099291	0.219656	1790.737061
6552.296330	0.099694	0.219656	1880.760376
6552.297231	0.100979	0.219656	1971.742432
6552.298116	0.100759	0.219656	2060.914307
6552.299046	0.099243	0.219656	2153.210449
6553.297873	0.714833	0.228623	320.245087
6553.298835	0.255381	0.228623	565.921509
6553.299758	0.248752	0.228623	795.520020
6553.300673	0.487756	0.228623	1241.817139
6553.301595	0.100034	0.228623	1334.048706
6553.302503	0.100232	0.228623	1425.059326
6553.303412	0.102166	0.228623	1517.927734
6553.304304	0.101656	0.228623	1608.605347
6553.305243	0.099829	0.228623	1702.344849
6553.306152	0.099554	0.228623	1792.839844
6553.307056	0.102166	0.228623	1885.197510
6553.307949	0.101078	0.228623	1975.460083
6553.308896	0.099137	0.228623	2069.342773
6553.309800	0.100254	0.228623	2159.972412
6554.324992	0.730166	0.226102	358.511505
6554.325911	0.255055	0.226102	592.906982
6554.326818	0.248826	0.226102	818.591858
6554.327718	0.475807	0.226102	1246.817993
6554.328663	0.098954	0.226102	1340.329346
6554.329558	0.100294	0.226102	1430.092651
6554.330458	0.102030	0.226102	1521.919678
6554.331344	0.101550	0.226102	1611.893188
6554.332294	0.099712	0.226102	1706.619507
6554.333204	0.100664	0.226102	1798.223755
6554.334105	0.102070	0.226102	1890.189087
6554.335037	0.099851	0.226102	1983.250244
6554.335938	0.099119	0.226102	2072.556152
6554.336834	0.100690	0.226102	2162.774170
6555.331531	0.718433	0.230416	314.673492
6555.332425	0.254652	0.230416	542.332458
6555.333420	0.248767	0.230416	789.855713
6555.334360	0.423138	0.230416	1187.605835
6555.335253	0.100884	0.230416	1277.695068
6555.336191	0.100942	0.230416	1372.379028
6555.337112	0.100507	0.230416	1464.945557
6555.338028	0.100858	0.230416	1557.331665
6555.338916	0.100327	0.230416	1646.422119
6555.339864	0.099983	0.230416	1741.205933
6555.340779	0.100521	0.230416	1833.182861
6555.341699	0.100829	0.230416	1925.945435
6555.342588	0.100305	0.230416	2015.116699
6555.343540	0.100474	0.230416	2110.767578
6556.361715	0.582433	0.216977	276.073181
6556.362629	0.255330	0.216977	509.444397
6556.363540	0.249236	0.216977	736.498291
6556.364436	0.491052	0.216977	1176.481201
6556.365388	0.099210	0.216977	1270.929321
6556.366296	0.100624	0.216977	1362.295654
6556.367186	0.101854	0.216977	1452.945923
6556.368117	0.100631	0.216977	1546.633423
6556.369020	0.099847	0.216977	1636.795654
6556.369919	0.102034	0.216977	1728.523926
6556.370812	0.101821	0.216977	1819.450317
6556.371762	0.099441	0.216977	1913.919189
6556.372662	0.099624	0.216977	2003.580811
6556.373570	0.100444	0.216977	2094.784180
6557.363150	0.719520	0.228776	313.710815
6557.364047	0.254945	0.228776	542.396545
6557.365000	0.249620	0.228776	780.284729
6557.365931	0.484999	0.228776	1231.818604
6557.366833	0.102052	0.228776	1323.869507
6557.367722	0.101539	0.228776	1414.137939
6557.368664	0.100034	0.228776	1508.370117
6557.369569	0.102078	0.228776	1600.750366
6557.370462	0.101818	0.228776	1691.673462
6557.371404	0.100012	0.228776	1785.885010
6557.372302	0.099335	0.228776	1875.087646
6557.373204	0.102092	0.228776	1967.174927
6557.374091	0.100953	0.228776	2056.720459
6557.375029	0.099060	0.228776	2149.638672
6558.398416	0.701283	0.221747	312.070892
6558.399404	0.255190	0.221747	564.199036
6558.400309	0.248419	0.221747	789.018372
6558.401244	0.479231	0.221747	1237.099365
6558.402134	0.101737	0.221747	1327.645386
6558.403084	0.101426	0.221747	1423.999878
6558.404004	0.103293	0.221747	1519.029907
6558.404890	0.101777	0.221747	1609.204590
6558.405834	0.100078	0.221747	1703.678345
6558.406729	0.101880	0.221747	1794.860840
6558.407647	0.101173	0.221747	1887.737793
6558.408543	0.100990	0.221747	1978.224854
6558.409512	0.100298	0.221747	2075.413574
6558.410415	0.101107	0.221747	2166.713379
6559.397323	0.714203	0.227520	313.535065
6559.398292	0.255469	0.227520	561.084290
6559.399205	0.248873	0.227520	788.305603
6559.400115	0.481956	0.227520	1226.885132
6559.401050	0.100811	0.227520	1321.142944
6559.401948	0.100045	0.227520	1410.983521
6559.402859	0.101851	0.227520	1503.769409
6559.403751	0.101766	0.227520	1594.545044
6559.404696	0.099712	0.227520	1688.772827
6559.405603	0.100386	0.227520	1779.822754
6559.406510	0.101946	0.227520	1872.287598
6559.407397	0.102001	0.227520	1962.762207
6559.408362	0.099023	0.227520	2058.319824
6559.409267	0.099441	0.227520	2148.313965
6560.434671	0.622961	0.219342	290.300018
6560.435580	0.255048	0.219342	522.138306
6560.436489	0.249445	0.219342	748.883423
6560.437386	0.472866	0.219342	1173.044434
6560.438347	0.099401	0.219342	1268.568481
6560.439256	0.101613	0.219342	1360.934326
6560.440144	0.101810	0.219342	1451.341919
6560.441076	0.099928	0.219342	1544.474854
6560.441978	0.099591	0.219342	1634.306030
6560.442880	0.101693	0.219342	1726.033203
6560.443771	0.100939	0.219342	1815.969604
6560.444731	0.099265	0.219342	1911.264160
6560.445630	0.100085	0.219342	2001.240967
6560.446527	0.101118	0.219342	2091.943848
6561.431039	0.690128	0.227850	338.162781
6561.431963	0.255377	0.227850	574.131287
6561.432872	0.249064	0.227850	800.530212
6561.433777	0.485372	0.227850	1239.792236
6561.434737	0.099368	0.227850	1335.185181
6561.435642	0.101298	0.227850	1426.859497
6561.436535	0.103088	0.227850	1518.917480
6561.437460	0.100452	0.227850	1611.835205
6561.438376	0.099690	0.227850	1703.151245
6561.439287	0.102162	0.227850	1796.220703
6561.440189	0.101353	0.227850	1887.640747
6561.441112	0.099525	0.227850	1979.502441
6561.442016	0.099144	0.227850	2069.128906
6561.442923	0.102052	0.227850	2161.690186
6562.469847	0.714287	0.216248	318.572052
6562.470742	0.255106	0.216248	546.892090
6562.471690	0.249624	0.216248	783.535645
6562.472608	0.479897	0.216248	1224.081543
6562.473504	0.101349	0.216248	1314.890137
6562.474415	0.101869	0.216248	1407.692749
6562.475357	0.100228	0.216248	1502.107788
6562.476258	0.101920	0.216248	1593.937866
6562.477148	0.102891	0.216248	1685.510498
6562.478097	0.099467	0.216248	1779.904297
6562.479005	0.100430	0.216248	1871.094482
6562.479904	0.103063	0.216248	1963.747925
6562.480790	0.102067	0.216248	2054.178955
6562.481726	0.099155	0.216248	2146.988281
6563.464654	0.720271	0.224176	315.478699
6563.465571	0.254802	0.224176	549.132385
6563.466482	0.249598	0.224176	776.516479
6563.467437	0.489012	0.224176	1243.523437
6563.468337	0.099283	0.224176	1332.878540
6563.469236	0.102590	0.224176	1425.107300
6563.470125	0.101638	0.224176	1515.463623
6563.471073	0.099763	0.224176	1610.039062
6563.471966	0.099935	0.224176	1699.281250
6563.472874	0.100635	0.224176	1790.657593
6563.473764	0.100800	0.224176	1880.369141
6563.474706	0.099159	0.224176	1973.776855
6563.475612	0.100627	0.224176	2064.945312
6563.476510	0.101298	0.224176	2155.910645
6564.504537	0.676351	0.218077	303.681732
6564.505449	0.255190	0.218077	536.415405
6564.506357	0.249814	0.218077	763.246948
6564.507315	0.456815	0.218077	1200.875977
6564.508221	0.099097	0.218077	1290.657593
6564.509129	0.102063	0.218077	1383.330811
6564.510019	0.101726	0.218077	1473.867065
6564.510987	0.099635	0.218077	1570.313721
6564.511882	0.100261	0.218077	1660.047485
6564.512778	0.102352	0.218077	1751.755127
6564.513665	0.100836	0.218077	1841.196777
6564.514599	0.099423	0.218077	1934.057495
6564.515496	0.100598	0.218077	2024.294067
6564.516392	0.101481	0.218077	2115.220703
6565.498325	0.686634	0.226557	306.238983
6565.499230	0.255282	0.226557	537.269165
6565.500125	0.250071	0.226557	761.082520
6565.501094	0.488844	0.226557	1234.772339
6565.502005	0.100107	0.226557	1325.970215
6565.502903	0.102451	0.226557	1417.971313
6565.503843	0.101210	0.226557	1513.108398
6565.504743	0.100060	0.226557	1603.162231
6565.505637	0.102422	0.226557	1694.727417
6565.506523	0.101356	0.226557	1784.529053
6565.507459	0.099467	0.226557	1877.629761
6565.508360	0.099635	0.226557	1967.400879
6565.509268	0.101832	0.226557	2059.864502
6565.510158	0.100378	0.226557	2149.201172
6566.539215	0.719890	0.217066	316.031769
6566.540110	0.254916	0.217066	544.181396
6566.541061	0.249624	0.217066	781.573853
6566.541981	0.473719	0.217066	1217.395752
6566.542875	0.101558	0.217066	1308.188232
6566.543813	0.100192	0.217066	1402.167969
6566.544722	0.099855	0.217066	1492.935913
6566.545623	0.101345	0.217066	1584.247925
6566.546510	0.101477	0.217066	1674.258057
6566.547466	0.099906	0.217066	1769.768188
6566.548369	0.101082	0.217066	1861.044800
6566.549266	0.101210	0.217066	1951.829956
6566.550156	0.100576	0.217066	2041.342773
6566.551096	0.099565	0.217066	2134.934326
6567.533007	0.704330	0.222758	309.905121
6567.533954	0.255000	0.222758	551.390137
6567.534881	0.249214	0.222758	782.411377
6567.535800	0.479363	0.222758	1222.945801
6567.536691	0.101635	0.222758	1313.502197
6567.537630	0.100100	0.222758	1407.496216
6567.538542	0.100895	0.222758	1499.512207
6567.539438	0.101832	0.222758	1590.753906
6567.540323	0.101532	0.222758	1680.609741
6567.541272	0.099196	0.222758	1774.746338
6567.542169	0.102682	0.222758	1866.852051
6567.543058	0.102510	0.222758	1957.983276
6567.543985	0.100525	0.222758	2051.169922
6567.544896	0.099851	0.222758	2142.134277
6568.574433	0.673469	0.221251	303.061157
6568.575334	0.255117	0.221251	532.921753
6568.576237	0.250049	0.221251	758.715820
6568.577206	0.479458	0.221251	1223.310669
6568.578108	0.099789	0.221251	1313.320190
6568.579015	0.102828	0.221251	1406.585571
6568.579902	0.101147	0.221251	1496.303345
6568.580842	0.099998	0.221251	1590.301025
6568.581748	0.100690	0.221251	1681.525879
6568.582636	0.101656	0.221251	1771.796875
6568.583560	0.100261	0.221251	1864.438232
6568.584475	0.099613	0.221251	1955.584106
6568.585373	0.101982	0.221251	2047.164307
6568.586267	0.102382	0.221251	2138.693359
6569.568712	0.724464	0.227040	316.590820
6569.569609	0.255055	0.227040	545.375122
6569.570576	0.249683	0.227040	786.818237
6569.571509	0.465593	0.227040	1221.216797
6569.572408	0.100719	0.227040	1311.763184
6569.573334	0.100525	0.227040	1404.849243
6569.574239	0.099844	0.227040	1495.207886
6569.575146	0.101268	0.227040	1587.058228
6569.576036	0.101733	0.227040	1677.600952
6569.576975	0.099675	0.227040	1771.196045
6569.577877	0.099690	0.227040	1861.116333
6569.578769	0.102631	0.227040	1952.662842
6569.579658	0.101536	0.227040	2042.927979
6569.580593	0.099357	0.227040	2135.826416
6570.608595	0.700492	0.219878	312.419403
6570.609491	0.255077	0.219878	540.968323
6570.610453	0.249620	0.219878	781.103088
6570.611369	0.472324	0.219878	1213.752075
6570.612261	0.101396	0.219878	1304.197754
6570.613175	0.101968	0.219878	1397.396240
6570.614102	0.100214	0.219878	1490.294312
6570.615009	0.101686	0.219878	1582.523315
6570.615904	0.102704	0.219878	1674.443237
6570.616832	0.100338	0.219878	1767.557007
6570.617736	0.100115	0.219878	1858.060791
6570.618643	0.101990	0.219878	1950.565430
6570.619534	0.101503	0.219878	2041.004272
6570.620478	0.099382	0.219878	2134.821289
6571.605459	0.704326	0.228950	311.312164
6571.606386	0.254608	0.228950	547.333923
6571.607332	0.248796	0.228950	782.695312
6571.608250	0.481842	0.228950	1225.026367
6571.609145	0.101287	0.228950	1315.677856
6571.610076	0.100071	0.228950	1408.843750
6571.610984	0.100265	0.228950	1499.884277
6571.611886	0.102429	0.228950	1592.275391
6571.612772	0.100997	0.228950	1681.759033
6571.613713	0.099628	0.228950	1775.508667
6571.614624	0.100481	0.228950	1867.046875
6571.615515	0.102517	0.228950	1958.389648
6571.616427	0.100320	0.228950	2049.881348
6571.617353	0.099470	0.228950	2141.990723
6572.643278	0.700631	0.222275	309.678925
6572.644244	0.255476	0.222275	556.468811
6572.645153	0.249229	0.222275	783.017517
6572.646079	0.476675	0.222275	1224.418457
6572.646965	0.100616	0.222275	1313.564697
6572.647905	0.101678	0.222275	1409.142456
6572.648804	0.103597	0.222275	1502.276489
6572.649695	0.104073	0.222275	1595.005981
6572.650632	0.100800	0.222275	1689.455200
6572.651544	0.102396	0.222275	1782.840576
6572.652449	0.101686	0.222275	1874.866211
6572.653333	0.101572	0.222275	1964.656128
6572.654281	0.099584	0.222275	2059.061523
6572.655185	0.101422	0.222275	2150.747070
6573.640661	0.687195	0.225703	309.237671
6573.641560	0.255176	0.225703	538.640686
6573.642457	0.250236	0.225703	763.102051
6573.643428	0.490975	0.225703	1239.839111
6573.644327	0.099924	0.225703	1329.671021
6573.645229	0.101708	0.225703	1421.411377
6573.646121	0.100803	0.225703	1511.327881
6573.647061	0.099855	0.225703	1605.191284
6573.647964	0.100715	0.225703	1696.137207
6573.648860	0.102048	0.225703	1787.572510
6573.649798	0.100063	0.225703	1881.432007
6573.650708	0.099646	0.225703	1972.109863
6573.651609	0.102111	0.225703	2064.111572
6573.652497	0.101499	0.225703	2154.242676
6574.677477	0.659242	0.224954	307.865997
6574.678374	0.254593	0.224954	536.236328
6574.679271	0.248833	0.224954	759.439514
6574.680250	0.485559	0.224954	1234.801880
6574.681156	0.100444	0.224954	1325.804443
6574.682054	0.102693	0.224954	1418.022705
6574.682995	0.100972	0.224954	1513.037109
6574.683899	0.099785	0.224954	1603.242920
6574.684800	0.103641	0.224954	1696.623779
6574.685689	0.102510	0.224954	1787.755005
6574.686634	0.099390	0.224954	1881.678223
6574.687536	0.100093	0.224954	1971.961914
6574.688433	0.101517	0.224954	2063.022949
6574.689321	0.100323	0.224954	2152.110107
6575.678416	0.728390	0.229163	319.763184
6575.679315	0.255007	0.229163	549.014771
6575.680272	0.249467	0.229163	787.754272
6575.681219	0.481608	0.229163	1243.836670
6575.682125	0.101931	0.229163	1336.186279
6575.683031	0.101136	0.229163	1427.815918
6575.683965	0.100895	0.229163	1522.051636
6575.684867	0.101342	0.229163	1613.461670
6575.685753	0.101041	0.229163	1702.984253
6575.686701	0.099807	0.229163	1797.601440
6575.687599	0.100305	0.229163	1887.675537
6575.688496	0.101829	0.229163	1979.015747
6575.689382	0.100803	0.229163	2068.327393
6575.690325	0.098888	0.229163	2161.578613
6576.710619	0.678816	0.223471	303.430695
6576.711523	0.255150	0.223471	534.086426
6576.712416	0.249836	0.223471	757.190308
6576.713395	0.495231	0.223471	1242.021240
6576.714306	0.100525	0.223471	1333.599365
6576.715201	0.102144	0.223471	1425.017822
6576.716151	0.100730	0.223471	1520.711304
6576.717055	0.100378	0.223471	1611.453369
6576.717950	0.101884	0.223471	1702.639160
6576.718840	0.101177	0.223471	1792.686523
6576.719767	0.099456	0.223471	1884.881836
6576.720675	0.099602	0.223471	1975.320557
6576.721580	0.102096	0.223471	2067.717285
6576.722475	0.100723	0.223471	2157.864014
6577.714657	0.707384	0.225590	316.908051
6577.715562	0.254689	0.225590	547.401367
6577.716459	0.249785	0.225590	771.458618
6577.717439	0.486119	0.225590	1247.855591
6577.718340	0.101631	0.225590	1339.425049
6577.719271	0.103184	0.225590	1435.489014
6577.720157	0.100961	0.225590	1524.940186
6577.721103	0.101671	0.225590	1621.121094
6577.722020	0.101191	0.225590	1713.913574
6577.722917	0.100935	0.225590	1804.452271
6577.723840	0.100649	0.225590	1897.351685
6577.724770	0.100488	0.225590	1990.805786
6577.725692	0.101404	0.225590	2084.300049
6577.726580	0.101448	0.225590	2174.385742
6578.744288	0.687579	0.224140	312.848602
6578.745189	0.255505	0.224140	543.058960
6578.746128	0.249866	0.224140	777.682861
6578.747044	0.488408	0.224140	1225.064819
6578.747951	0.101345	0.224140	1316.984985
6578.748841	0.102268	0.224140	1408.003540
6578.749791	0.099954	0.224140	1502.959473
6578.750701	0.101166	0.224140	1595.020264
6578.751594	0.101576	0.224140	1685.727539
6578.752523	0.100082	0.224140	1778.703491
6578.753426	0.099199	0.224140	1868.280396
6578.754325	0.101711	0.224140	1959.718994
6578.755215	0.101583	0.224140	2050.128174
6578.756155	0.098855	0.224140	2143.051758
6579.752454	0.716082	0.230090	355.176453
6579.753371	0.255802	0.230090	589.746887
6579.754281	0.249309	0.230090	816.618164
6579.755186	0.482783	0.230090	1253.536987
6579.756134	0.099100	0.230090	1347.484131
6579.757032	0.100173	0.230090	1437.439819
6579.757930	0.102341	0.230090	1529.342285
6579.758821	0.102030	0.230090	1620.251099
6579.759761	0.099613	0.230090	1713.887329
6579.760666	0.100712	0.230090	1805.031372
6579.761565	0.101470	0.230090	1896.252686
6579.762496	0.099939	0.230090	1989.295898
6579.763401	0.099393	0.230090	2079.246826
6579.764298	0.101807	0.230090	2170.567383
6580.776920	0.678779	0.223310	301.378021
6580.777824	0.255179	0.223310	532.060242
6580.778720	0.249990	0.223310	756.051514
6580.779694	0.495604	0.223310	1238.770020
6580.780602	0.101071	0.223310	1330.542114
6580.781496	0.103066	0.223310	1422.683472
6580.782423	0.100536	0.223310	1515.880249
6580.783321	0.100016	0.223310	1605.694458
6580.784218	0.103228	0.223310	1698.289551
6580.785109	0.101499	0.223310	1788.725220
6580.786033	0.099335	0.223310	1880.510498
6580.786941	0.099954	0.223310	1971.268311
6580.787851	0.100869	0.223310	2063.059326
6580.788747	0.100012	0.223310	2152.670166
6581.788619	0.720608	0.226174	317.067505
6581.789591	0.254916	0.226174	564.845642
6581.790513	0.248386	0.226174	793.857727
6581.791412	0.488643	0.226174	1233.147461
6581.792370	0.099232	0.226174	1328.211914
6581.793265	0.100173	0.226174	1417.867065
6581.794165	0.102484	0.226174	1510.102783
6581.795053	0.101766	0.226174	1600.471313
6581.795993	0.099672	0.226174	1694.162598
6581.796899	0.100990	0.226174	1785.659546
6581.797797	0.102162	0.226174	1877.400879
6581.798724	0.100521	0.226174	1970.584106
6581.799635	0.099386	0.226174	2061.124756
6581.800545	0.101118	0.226174	2153.142334
6582.808524	0.704030	0.224663	311.885071
6582.809479	0.255304	0.224663	555.700317
6582.810403	0.248972	0.224663	785.750610
6582.811310	0.488416	0.224663	1228.743408
6582.812197	0.100371	0.224663	1317.772583
6582.813151	0.100031	0.224663	1413.201660
6582.814050	0.101664	0.224663	1504.597412
6582.814939	0.102418	0.224663	1595.647217
6582.815866	0.100118	0.224663	1688.457031
6582.816776	0.100514	0.224663	1779.924683
6582.817674	0.102001	0.224663	1871.521362
6582.818561	0.101755	0.224663	1961.778320
6582.819492	0.099166	0.224663	2054.102051
6582.820400	0.100693	0.224663	2145.531738
6583.824845	0.728500	0.223048	319.082886
6583.825790	0.255337	0.223048	560.376282
6583.826712	0.249210	0.223048	790.148071
6583.827621	0.493422	0.223048	1238.668335
6583.828546	0.099935	0.223048	1331.108521
6583.829469	0.100206	0.223048	1423.598877
6583.830374	0.102195	0.223048	1516.085205
6583.831275	0.101821	0.223048	1607.826172
6583.832223	0.099946	0.223048	1702.575195
6583.833119	0.100023	0.223048	1792.195923
6583.834021	0.102081	0.223048	1884.273193
6583.834910	0.100404	0.223048	1973.532349
6583.835835	0.099324	0.223048	2065.406738
6583.836741	0.099946	0.223048	2155.958008
6584.842744	0.715082	0.224253	347.529755
6584.843659	0.255363	0.224253	581.186462
6584.844593	0.249042	0.224253	813.791443
6584.845496	0.483084	0.224253	1250.015869
6584.846454	0.100096	0.224253	1345.908203
6584.847367	0.101913	0.224253	1438.954590
6584.848297	0.101715	0.224253	1533.549561
6584.849183	0.101184	0.224253	1623.198608
6584.850126	0.101444	0.224253	1718.860352
6584.851028	0.101605	0.224253	1810.508301
6584.851920	0.101023	0.224253	1900.620728
6584.852852	0.099954	0.224253	1993.777466
6584.853767	0.100895	0.224253	2086.096191
6584.854690	0.100554	0.224253	2178.907715
6585.862123	0.631714	0.220679	289.956665
6585.863041	0.255223	0.220679	524.251709
6585.863948	0.249492	0.220679	750.541138
6585.864843	0.465861	0.220679	1167.486328
6585.865793	0.099357	0.220679	1261.875244
6585.866698	0.101660	0.220679	1353.877686
6585.867589	0.102616	0.220679	1445.308472
6585.868523	0.100697	0.220679	1539.359497
6585.869425	0.099716	0.220679	1629.302979
6585.870328	0.101840	0.220679	1721.264160
6585.871219	0.100913	0.220679	1811.177734
6585.872172	0.099137	0.220679	1905.655273
6585.873074	0.099807	0.220679	1995.681274
6585.873975	0.101660	0.220679	2087.277100
6586.875371	0.631450	0.224075	289.835632
6586.876283	0.254608	0.224075	522.038269
6586.877196	0.249005	0.224075	749.379944
6586.878101	0.461510	0.224075	1167.046509
6586.879038	0.099408	0.224075	1260.191772
6586.879944	0.101869	0.224075	1352.484985
6586.880839	0.101356	0.224075	1443.198730
6586.881771	0.100448	0.224075	1536.816284
6586.882676	0.099760	0.224075	1627.098633
6586.883574	0.102418	0.224075	1719.070190
6586.884463	0.100851	0.224075	1808.726562
6586.885411	0.099320	0.224075	1902.881958
6586.886313	0.100093	0.224075	1993.165649
6586.887216	0.101188	0.224075	2084.538086
6587.898372	0.692758	0.223761	343.607788
6587.899289	0.255652	0.223761	578.040527
6587.900192	0.249390	0.223761	803.239380
6587.901090	0.484746	0.223761	1238.541382
6587.902029	0.099159	0.223761	1331.651611
6587.902941	0.100675	0.223761	1423.467285
6587.903840	0.101891	0.223761	1515.067139
6587.904747	0.101492	0.223761	1607.120117
6587.905677	0.099745	0.223761	1699.882812
6587.906583	0.100602	0.223761	1791.028076
6587.907480	0.101448	0.223761	1882.026733
6587.908427	0.099558	0.223761	1976.308228
6587.909325	0.099584	0.223761	2065.734375
6587.910228	0.102415	0.223761	2158.214600
6588.909531	0.691857	0.224655	314.102936
6588.910428	0.254857	0.224655	542.709839
6588.911364	0.249401	0.224655	776.148804
6588.912304	0.473800	0.224655	1221.520874
6588.913217	0.102004	0.224655	1314.650879
6588.914114	0.102865	0.224655	1406.920776
6588.915051	0.100206	0.224655	1500.814087
6588.915958	0.100181	0.224655	1591.677979
6588.916864	0.101459	0.224655	1683.599609
6588.917751	0.100763	0.224655	1772.976318
6588.918695	0.099379	0.224655	1866.789795
6588.919602	0.100583	0.224655	1958.019043
6588.920493	0.100880	0.224655	2047.903198
6588.921414	0.100862	0.224655	2140.796875
6589.934030	0.696672	0.224885	309.322540
6589.934919	0.255048	0.224885	536.059814
6589.935891	0.249470	0.224885	778.544861
6589.936807	0.493407	0.224885	1230.505615
6589.937737	0.100979	0.224885	1324.416138
6589.938622	0.101613	0.224885	1414.343262
6589.939563	0.100778	0.224885	1509.174927
6589.940463	0.101364	0.224885	1600.402100
6589.941355	0.101777	0.224885	1691.187500
6589.942294	0.100393	0.224885	1785.456543
6589.943202	0.101876	0.224885	1877.960205
6589.944098	0.102554	0.224885	1969.848389
6589.945008	0.100880	0.224885	2061.649414
6589.945945	0.099987	0.224885	2155.336914
6590.943175	0.718458	0.228015	313.966248
6590.944070	0.254927	0.228015	542.125732
6590.945054	0.249390	0.228015	787.525146
6590.945971	0.470753	0.228015	1219.205811
6590.946868	0.102078	0.228015	1310.769409
6590.947776	0.101583	0.228015	1403.006958
6590.948713	0.100089	0.228015	1496.790405
6590.949618	0.100887	0.228015	1588.093506
6590.950515	0.101422	0.228015	1679.069092
6590.951447	0.099661	0.228015	1771.952759
6590.952352	0.099283	0.228015	1861.804321
6590.953249	0.101631	0.228015	1952.967163
6590.954138	0.100693	0.228015	2042.483521
6590.955083	0.098983	0.228015	2136.022705
6591.969286	0.713027	0.222315	354.374603
6591.970194	0.255330	0.222315	586.213867
6591.971122	0.248859	0.222315	817.154663
6591.972029	0.482003	0.222315	1254.331543
6591.972991	0.101016	0.222315	1351.508545
6591.973909	0.101195	0.222315	1444.405640
6591.974804	0.102184	0.222315	1535.860229
6591.975708	0.101539	0.222315	1627.651733
6591.976651	0.101620	0.222315	1723.479248
6591.977562	0.102374	0.222315	1816.742187
6591.978450	0.102543	0.222315	1907.800171
6591.979388	0.101213	0.222315	2002.738281
6591.980291	0.101060	0.222315	2093.995117
6591.981203	0.101279	0.222315	2186.361816
6592.977918	0.625349	0.226315	304.545013
6592.978835	0.254960	0.226315	538.343079
6592.979739	0.248738	0.226315	763.202026
6592.980641	0.489415	0.226315	1204.654541
6592.981599	0.099349	0.226315	1299.831177
6592.982496	0.100609	0.226315	1390.077515
6592.983392	0.101858	0.226315	1481.342163
6592.984324	0.100961	0.226315	1575.437500
6592.985246	0.099540	0.226315	1667.213135
6592.986150	0.102466	0.226315	1759.842285
6592.987048	0.101697	0.226315	1851.166016
6592.987990	0.099122	0.226315	1944.539185
6592.988896	0.099573	0.226315	2034.752075
6592.989799	0.100261	0.226315	2125.288086
6594.004959	0.678849	0.222476	304.803162
6594.005879	0.255348	0.222476	539.723267
6594.006786	0.249741	0.222476	766.238525
6594.007746	0.486577	0.222476	1233.352539
6594.008643	0.099254	0.222476	1322.383545
6594.009546	0.103195	0.222476	1415.568237
6594.010439	0.102404	0.222476	1507.014648
6594.011388	0.099858	0.222476	1601.780273
6594.012287	0.100089	0.222476	1691.760376
6594.013185	0.101635	0.222476	1783.028198
6594.014073	0.100331	0.222476	1872.121948
6594.015008	0.099441	0.222476	1965.099243
6594.015909	0.100642	0.222476	2055.777832
6594.016809	0.101931	0.222476	2147.515869
6595.012060	0.658927	0.226456	293.881439
6595.012973	0.255084	0.226456	526.773315
6595.013877	0.249562	0.226456	752.377136
6595.014841	0.488877	0.226456	1223.654541
6595.015749	0.099814	0.226456	1314.286011
6595.016650	0.101700	0.226456	1405.918091
6595.017541	0.102975	0.226456	1497.668701
6595.018468	0.099899	0.226456	1590.274780
6595.019376	0.101785	0.226456	1682.695312
6595.020271	0.101532	0.226456	1773.566406
6595.021192	0.100042	0.226456	1865.704590
6595.022108	0.099576	0.226456	1956.916626
6595.023015	0.100887	0.226456	2048.421631
6595.023906	0.101711	0.226456	2139.046387
6596.040138	0.718927	0.221525	312.733246
6596.041087	0.255623	0.221525	555.319092
6596.042014	0.249580	0.221525	786.679810
6596.042930	0.491748	0.221525	1237.120972
6596.043817	0.100327	0.221525	1326.111206
6596.044761	0.100100	0.221525	1420.605713
6596.045670	0.100778	0.221525	1512.212524
6596.046563	0.102147	0.221525	1603.429932
6596.047506	0.100990	0.221525	1698.663452
6596.048407	0.099617	0.221525	1788.418091
6596.049310	0.103195	0.221525	1881.602783
6596.050199	0.100939	0.221525	1971.337280
6596.051132	0.099071	0.221525	2063.770508
6596.052033	0.100034	0.221525	2153.901367
6597.046731	0.728430	0.228196	320.509277
6597.047696	0.255520	0.228196	567.086060
6597.048613	0.249159	0.228196	795.564819
6597.049526	0.457599	0.228196	1213.352539
6597.050417	0.099320	0.228196	1301.846680
6597.051368	0.099672	0.228196	1396.634399
6597.052275	0.100558	0.228196	1487.840332
6597.053175	0.101155	0.228196	1578.879639
6597.054110	0.100276	0.228196	1672.637573
6597.055020	0.099386	0.228196	1763.078857
6597.055920	0.100646	0.228196	1853.660034
6597.056807	0.100594	0.228196	1942.887329
6597.057742	0.099250	0.228196	2035.686523
6597.058648	0.100730	0.228196	2126.947998
6598.074830	0.705150	0.221856	310.266052
6598.075733	0.254850	0.221856	540.395447
6598.076627	0.250001	0.221856	763.896545
6598.077598	0.485621	0.221856	1235.434814
6598.078497	0.100228	0.221856	1325.540039
6598.079404	0.102697	0.221856	1418.685791
6598.080291	0.101755	0.221856	1508.942871
6598.081236	0.099855	0.221856	1603.305542
6598.082147	0.101056	0.221856	1695.367432
6598.083037	0.102220	0.221856	1786.343628
6598.083974	0.099965	0.221856	1880.010498
6598.084877	0.099097	0.221856	1969.494751
6598.085778	0.100935	0.221856	2060.437256
6598.086670	0.101437	0.221856	2150.918945
6599.081935	0.709219	0.226223	313.474670
6599.082836	0.255216	0.226223	543.424316
6599.083780	0.249767	0.226223	779.204224
6599.084699	0.486709	0.226223	1226.489746
6599.085599	0.101089	0.226223	1317.469727
6599.086487	0.102319	0.226223	1408.329346
6599.087444	0.099972	0.226223	1504.002441
6599.088336	0.100408	0.226223	1593.566162
6599.089239	0.102477	0.226223	1686.102661
6599.090133	0.101243	0.226223	1776.613647
6599.091071	0.099620	0.226223	1870.057495
6599.091981	0.101481	0.226223	1962.404907
6599.092879	0.101642	0.226223	2053.679199
6599.093816	0.100334	0.226223	2147.692627
6600.109509	0.734000	0.226504	317.088104
6600.110473	0.255000	0.226504	562.908081
6600.111396	0.248961	0.226504	792.699219
6600.112309	0.489855	0.226504	1239.936646
6600.113197	0.100781	0.226504	1329.430420
6600.114157	0.099932	0.226504	1425.364746
6600.115061	0.100170	0.226504	1515.918091
6600.115960	0.102506	0.226504	1608.071045
6600.116873	0.100349	0.226504	1699.689819
6600.117800	0.099419	0.226504	1791.851196
6600.118700	0.101078	0.226504	1882.821289
6600.119597	0.100873	0.226504	1973.304199
6600.120535	0.099302	0.226504	2066.449219
6600.121436	0.099386	0.226504	2155.996094
6601.117672	0.618083	0.225449	288.644989
6601.118594	0.255337	0.225449	524.065613
6601.119493	0.249346	0.225449	748.227417
6601.120440	0.485885	0.225449	1208.360474
6601.121334	0.099327	0.225449	1297.159180
6601.122230	0.102521	0.225449	1389.017822
6601.123116	0.102228	0.225449	1479.591675
6601.124062	0.099917	0.225449	1574.113159
6601.124958	0.100488	0.225449	1664.150635
6601.125855	0.103085	0.225449	1756.617676
6601.126763	0.101532	0.225449	1848.808716
6601.127702	0.099386	0.225449	1942.132202
6601.128614	0.101759	0.225449	2034.936401
6601.129509	0.101451	0.225449	2125.735352
6602.143707	0.686895	0.224224	304.981171
6602.144685	0.255300	0.224224	554.664856
6602.145599	0.248518	0.224224	781.810364
6602.146536	0.487617	0.224224	1238.707642
6602.147423	0.100419	0.224224	1327.779053
6602.148381	0.100470	0.224224	1424.029297
6602.149270	0.101847	0.224224	1514.571167
6602.150163	0.102924	0.224224	1606.481934
6602.151099	0.100082	0.224224	1700.158447
6602.151999	0.101213	0.224224	1791.250488
6602.152910	0.102034	0.224224	1884.203125
6602.153805	0.101246	0.224224	1974.818604
6602.154755	0.100822	0.224224	2070.599121
6602.155659	0.100986	0.224224	2161.890869
6603.153411	0.730305	0.226883	361.501038
6603.154339	0.255648	0.226883	598.742554
6603.155252	0.249034	0.226883	826.110962
6603.156148	0.481696	0.226883	1257.710205
6603.157088	0.099485	0.226883	1351.225952
6603.157989	0.100778	0.226883	1442.026611
6603.158891	0.102832	0.226883	1534.781128
6603.159777	0.102338	0.226883	1625.452271
6603.160727	0.099910	0.226883	1720.366455
6603.161636	0.101122	0.226883	1812.286133
6603.162522	0.102312	0.226883	1902.934570
6603.163453	0.100126	0.226883	1996.151611
6603.164362	0.099111	0.226883	2086.243896
6603.165267	0.101195	0.226883	2177.825439
6604.178387	0.686752	0.227713	306.978027
6604.179289	0.255070	0.227713	537.050781
6604.180256	0.249144	0.227713	777.973267
6604.181174	0.489866	0.227713	1227.669922
6604.182073	0.101550	0.227713	1318.963623
6604.182960	0.101704	0.227713	1409.175171
6604.183905	0.099833	0.227713	1503.517090
6604.184820	0.100825	0.227713	1595.772095
6604.185726	0.101891	0.227713	1688.085205
6604.186654	0.100071	0.227713	1780.950928
6604.187558	0.099294	0.227713	1870.713135
6604.188452	0.102737	0.227713	1962.559814
6604.189343	0.102177	0.227713	2053.599121
6604.190296	0.099346	0.227713	2148.275635
6605.189576	0.714917	0.225759	313.133636
6605.190546	0.255289	0.225759	560.764282
6605.191469	0.248789	0.225759	790.396606
6605.192372	0.485599	0.225759	1228.892822
6605.193312	0.099840	0.225759	1322.742554
6605.194221	0.100302	0.225759	1413.916626
6605.195119	0.101664	0.225759	1505.210693
6605.196008	0.101737	0.225759	1595.654907
6605.196950	0.099543	0.225759	1689.424805
6605.197853	0.099858	0.225759	1779.596924
6605.198755	0.102400	0.225759	1871.961670
6605.199663	0.100466	0.225759	1963.185059
6605.200582	0.099097	0.225759	2054.254883
6605.201488	0.099873	0.225759	2144.739746
6606.211535	0.705209	0.225505	313.112671
6606.212433	0.254875	0.225505	541.990845
6606.213400	0.249001	0.225505	782.775269
6606.214336	0.491067	0.225505	1242.413818
6606.215237	0.101202	0.225505	1333.597168
6606.216124	0.100990	0.225505	1423.175293
6606.217081	0.099833	0.225505	1518.715210
6606.217988	0.101005	0.225505	1610.326416
6606.218889	0.102312	0.225505	1702.509521
6606.219821	0.099628	0.225505	1795.362549
6606.220723	0.099565	0.225505	1885.170532
6606.221622	0.101180	0.225505	1976.131714
6606.222507	0.101188	0.225505	2065.682861
6606.223438	0.099291	0.225505	2158.122559
6607.225806	0.728533	0.224148	322.011475
6607.226757	0.254956	0.224148	564.474670
6607.227681	0.248862	0.224148	794.423462
6607.228594	0.495004	0.224148	1246.361816
6607.229527	0.100078	0.224148	1339.734741
6607.230449	0.099932	0.224148	1431.871704
6607.231357	0.101986	0.224148	1524.475098
6607.232254	0.101440	0.224148	1615.467163
6607.233204	0.099554	0.224148	1710.043945
6607.234107	0.099496	0.224148	1799.888672
6607.235012	0.101869	0.224148	1892.080078
6607.235899	0.101583	0.224148	1982.184448
6607.236838	0.099210	0.224148	2075.342773
6607.237745	0.100697	0.224148	2166.675049
6608.244694	0.663523	0.227189	296.594757
6608.245594	0.254780	0.227189	525.896973
6608.246566	0.248705	0.227189	767.638062
6608.247481	0.487852	0.227189	1214.022217
6608.248380	0.101371	0.227189	1305.154663
6608.249268	0.100323	0.227189	1394.241943
6608.250197	0.099749	0.227189	1486.908325
6608.251098	0.100280	0.227189	1577.260254
6608.251995	0.101785	0.227189	1668.561035
6608.252928	0.100723	0.227189	1762.535278
6608.253831	0.099221	0.227189	1852.131958
6608.254732	0.101920	0.227189	1943.962036
6608.255620	0.102103	0.227189	2034.629761
6608.256575	0.099349	0.227189	2129.508301
6609.262546	0.719520	0.224349	319.466980
6609.263499	0.255421	0.224349	562.883301
6609.264412	0.249327	0.224349	790.519226
6609.265310	0.487888	0.224349	1228.642822
6609.266257	0.099214	0.224349	1322.598389
6609.267162	0.099873	0.224349	1412.983521
6609.268058	0.103275	0.224349	1505.518066
6609.268948	0.101404	0.224349	1595.767456
6609.269886	0.099620	0.224349	1689.211304
6609.270785	0.100781	0.224349	1779.813599
6609.271688	0.101272	0.224349	1871.262207
6609.272597	0.100430	0.224349	1962.552734
6609.273524	0.099653	0.224349	2054.931396
6609.274432	0.101030	0.224349	2146.666992
6610.277865	0.659539	0.231322	308.004517
6610.278764	0.255359	0.231322	537.572144
6610.279715	0.249430	0.231322	774.780029
6610.280633	0.484365	0.231322	1219.427246
6610.281534	0.101814	0.231322	1311.161621
6610.282424	0.101656	0.231322	1401.635864
6610.283377	0.099741	0.231322	1496.689209
6610.284283	0.100800	0.231322	1588.013672
6610.285187	0.101624	0.231322	1679.881348
6610.286128	0.100042	0.231322	1774.020386
6610.287031	0.099250	0.231322	1863.643555
6610.287934	0.102206	0.231322	1955.935425
6610.288822	0.101660	0.231322	2046.209595
6610.289753	0.099371	0.231322	2138.724365
6611.299799	0.678296	0.222641	298.450165
6611.300722	0.254791	0.222641	533.622498
6611.301625	0.249639	0.222641	759.046204
6611.302579	0.452834	0.222641	1191.050293
6611.303482	0.099034	0.222641	1280.478394
6611.304385	0.101364	0.222641	1372.009644
6611.305272	0.102836	0.222641	1463.224854
6611.306214	0.100100	0.222641	1557.519165
6611.307115	0.100118	0.222641	1647.725830
6611.308013	0.101627	0.222641	1738.987061
6611.308905	0.101030	0.222641	1829.106079
6611.309844	0.099565	0.222641	1922.598022
6611.310754	0.100294	0.222641	2013.865723
6611.311655	0.101503	0.222641	2105.319580
6612.310992	0.719883	0.228164	313.868896
6612.311894	0.254498	0.228164	543.426331
6612.312839	0.249250	0.228164	778.968018
6612.313767	0.481586	0.228164	1225.879517
6612.314669	0.100917	0.228164	1316.906372
6612.315554	0.100704	0.228164	1406.029663
6612.316488	0.099708	0.228164	1499.157227
6612.317399	0.101356	0.228164	1591.492676
6612.318287	0.102250	0.228164	1682.290405
6612.319218	0.099738	0.228164	1775.146118
6612.320125	0.099489	0.228164	1865.382202
6612.321028	0.101221	0.228164	1956.784546
6612.321920	0.101107	0.228164	2046.972168
6612.322874	0.099456	0.228164	2141.852783
6613.337046	0.689938	0.223975	308.402191
6613.337951	0.254667	0.223975	538.875610
6613.338845	0.249844	0.223975	762.235962
6613.339798	0.486427	0.223975	1225.800903
6613.340706	0.100419	0.223975	1316.981079
6613.341602	0.101525	0.223975	1407.947144
6613.342486	0.101492	0.223975	1497.665771
6613.343425	0.100031	0.223975	1591.594482
6613.344330	0.102231	0.223975	1684.113892
6613.345222	0.100807	0.223975	1774.033691
6613.346154	0.100118	0.223975	1867.343994
6613.347071	0.099708	0.223975	1958.776489
6613.347968	0.100331	0.223975	2048.773193
6613.348859	0.102638	0.223975	2140.223633
6614.343635	0.691124	0.224168	309.623657
6614.344530	0.255011	0.224168	537.858521
6614.345454	0.249668	0.224168	768.551758
6614.346409	0.486786	0.224168	1233.432251
6614.347314	0.100785	0.224168	1324.642578
6614.348206	0.102059	0.224168	1415.679443
6614.349142	0.100228	0.224168	1509.493164
6614.350043	0.099884	0.224168	1599.488647
6614.350941	0.100316	0.224168	1689.572510
6614.351827	0.101012	0.224168	1779.069092
6614.352767	0.099335	0.224168	1872.443726
6614.353674	0.100096	0.224168	1963.231201
6614.354571	0.103466	0.224168	2056.039795
6614.355489	0.100785	0.224168	2148.560303
6615.373328	0.564349	0.221320	285.560760
6615.374238	0.255205	0.221320	517.797363
6615.375172	0.248544	0.221320	749.937195
6615.376073	0.483757	0.221320	1185.802490
6615.377031	0.100964	0.221320	1282.526367
6615.377937	0.101462	0.221320	1374.451294
6615.378831	0.101935	0.221320	1465.581055
6615.379770	0.100338	0.221320	1559.798584
6615.380680	0.100441	0.221320	1651.199585
6615.381599	0.102220	0.221320	1745.140137
6615.382490	0.100840	0.221320	1834.988403
6615.383446	0.099712	0.221320	1930.312988
6615.384346	0.100840	0.221320	2021.068848
6615.385267	0.100789	0.221320	2113.895020
6616.377298	0.719905	0.227777	316.758118
6616.378190	0.254857	0.227777	544.090698
6616.379139	0.249576	0.227777	780.938721
6616.380065	0.480875	0.227777	1226.229248
6616.380966	0.101400	0.227777	1317.590820
6616.381872	0.100818	0.227777	1408.931763
6616.382807	0.099884	0.227777	1502.323364
6616.383706	0.101082	0.227777	1593.195679
6616.384597	0.100946	0.227777	1683.138550
6616.385546	0.100001	0.227777	1778.039673
6616.386456	0.099639	0.227777	1868.710815
6616.387350	0.102257	0.227777	1960.128662
6616.388240	0.101305	0.227777	2050.290039
6616.389181	0.099470	0.227777	2143.891602
6617.411017	0.699741	0.223342	305.786896
6617.411989	0.255081	0.223342	553.725220
6617.412902	0.249093	0.223342	781.147156
6617.413810	0.455552	0.223342	1194.788086
6617.414698	0.102144	0.223342	1285.491577
6617.415645	0.099814	0.223342	1380.015869
6617.416555	0.100122	0.223342	1471.126953
6617.417462	0.101781	0.223342	1563.442383
6617.418349	0.100668	0.223342	1652.734619
6617.419301	0.099697	0.223342	1747.646362
6617.420206	0.100983	0.223342	1839.035645
6617.421100	0.102026	0.223342	1930.247192
6617.422046	0.100085	0.223342	2024.927979
6617.422947	0.099265	0.223342	2114.365967
6618.410955	0.726555	0.228015	318.957733
6618.411915	0.254905	0.228015	563.666321
6618.412815	0.249357	0.228015	788.087341
6618.413721	0.494407	0.228015	1236.019775
6618.414617	0.100642	0.228015	1326.195068
6618.415564	0.099727	0.228015	1420.636108
6618.416475	0.100239	0.228015	1511.954102
6618.417380	0.101459	0.228015	1603.774292
6618.418270	0.100173	0.228015	1692.928589
6618.419211	0.099763	0.228015	1786.805786
6618.420118	0.101305	0.228015	1878.689331
6618.421009	0.102209	0.228015	1969.757935
6618.421949	0.100756	0.228015	2064.468262
6618.422846	0.099305	0.228015	2153.545166
6619.447248	0.714584	0.219539	316.560577
6619.448141	0.254550	0.219539	543.873291
6619.449107	0.249133	0.219539	784.536072
6619.450032	0.479216	0.219539	1227.811157
6619.450927	0.101854	0.219539	1318.970703
6619.451851	0.100968	0.219539	1412.265137
6619.452751	0.099939	0.219539	1502.210205
6619.453656	0.102100	0.219539	1594.610352
6619.454545	0.102074	0.219539	1685.354126
6619.455499	0.099661	0.219539	1780.430420
6619.456406	0.100386	0.219539	1871.480225
6619.457304	0.101316	0.219539	1962.461914
6619.458202	0.100715	0.219539	2052.904297
6619.459140	0.099221	0.219539	2145.973877
6620.445665	0.676553	0.225409	306.478394
6620.446584	0.254799	0.225409	540.638306
6620.447484	0.249426	0.225409	765.121948
6620.448445	0.469991	0.225409	1216.783691
6620.449333	0.099031	0.225409	1304.723022
6620.450236	0.101920	0.225409	1396.756958
6620.451128	0.101708	0.225409	1487.480225
6620.452063	0.099771	0.225409	1580.765625
6620.452970	0.100203	0.225409	1671.649414
6620.453875	0.102389	0.225409	1764.311401
6620.454769	0.100928	0.225409	1854.540771
6620.455719	0.099591	0.225409	1949.152344
6620.456628	0.100818	0.225409	2040.795776
6620.457520	0.102708	0.225409	2132.410889
6621.483471	0.720146	0.220015	316.864441
6621.484365	0.255037	0.220015	544.867187
6621.485335	0.249415	0.220015	786.799988
6621.486251	0.481619	0.220015	1227.962646
6621.487144	0.100796	0.220015	1317.973389
6621.488053	0.100682	0.220015	1409.493652
6621.488981	0.099994	0.220015	1502.287964
6621.489877	0.101854	0.220015	1593.549316
6621.490773	0.102360	0.220015	1685.263550
6621.491711	0.100258	0.220015	1779.305176
6621.492612	0.099613	0.220015	1869.056519
6621.493518	0.103590	0.220015	1962.909180
6621.494409	0.100642	0.220015	2052.581299
6621.495349	0.099009	0.220015	2145.649658
6622.479824	0.698804	0.223318	309.570038
6622.480721	0.254978	0.223318	538.285339
6622.481614	0.249807	0.223318	761.363098
6622.482598	0.489489	0.223318	1243.019775
6622.483505	0.100759	0.223318	1334.408447
6622.484393	0.102499	0.223318	1425.427368
6622.485326	0.100236	0.223318	1518.947144
6622.486232	0.101067	0.223318	1610.513794
6622.487131	0.102169	0.223318	1702.363892
6622.488021	0.101689	0.223318	1792.867554
6622.488963	0.099547	0.223318	1886.640991
6622.489875	0.101118	0.223318	1978.860718
6622.490775	0.101920	0.223318	2070.588867
6622.491710	0.099441	0.223318	2163.566162
6623.520202	0.708937	0.217235	310.514282
6623.521095	0.254897	0.217235	538.137695
6623.522063	0.249353	0.217235	779.511414
6623.522992	0.482549	0.217235	1227.799316
6623.523890	0.101638	0.217235	1319.070435
6623.524815	0.100272	0.217235	1411.822266
6623.525711	0.099946	0.217235	1501.374146
6623.526605	0.102444	0.217235	1592.958984
6623.527495	0.101755	0.217235	1683.521240
6623.528441	0.099434	0.217235	1777.585449
6623.529344	0.100404	0.217235	1868.250366
6623.530247	0.101726	0.217235	1960.109009
6623.531158	0.100045	0.217235	2051.250244
6623.532084	0.099027	0.217235	2142.949219
6624.515534	0.729441	0.223068	321.683441
6624.516493	0.255231	0.223068	566.449707
6624.517424	0.248983	0.223068	798.253052
6624.518333	0.481688	0.223068	1236.107666
6624.519271	0.099745	0.223068	1329.668335
6624.520188	0.101422	0.223068	1422.672363
6624.521112	0.102059	0.223068	1516.975220
6624.522000	0.102422	0.223068	1607.925781
6624.522962	0.100756	0.223068	1704.852661
6624.523865	0.101429	0.223068	1796.443481
6624.524787	0.101796	0.223068	1890.299072
6624.525674	0.101027	0.223068	1979.909668
6624.526606	0.100627	0.223068	2073.694336
6624.527538	0.101089	0.223068	2167.909180
6625.554945	0.721110	0.222299	358.391479
6625.555877	0.255406	0.222299	596.430359
6625.556789	0.248459	0.222299	823.025391
6625.557697	0.460052	0.222299	1240.753052
6625.558642	0.099360	0.222299	1334.648560
6625.559550	0.102272	0.222299	1427.511230
6625.560449	0.102283	0.222299	1519.463379
6625.561337	0.101305	0.222299	1609.422119
6625.562288	0.099635	0.222299	1704.175049
6625.563186	0.102169	0.222299	1795.922974
6625.564077	0.101499	0.222299	1886.358643
6625.565010	0.099525	0.222299	1979.215576
6625.565924	0.100159	0.222299	2070.760742
6625.566829	0.100811	0.222299	2161.994385
6626.550735	0.701543	0.223656	311.485077
6626.551715	0.255509	0.223656	561.883911
6626.552635	0.248569	0.223656	790.567688
6626.553543	0.481003	0.223656	1227.318848
6626.554479	0.100261	0.223656	1321.163330
6626.555374	0.100258	0.223656	1410.893799
6626.556267	0.103099	0.223656	1502.961548
6626.557156	0.101785	0.223656	1593.448120
6626.558099	0.099884	0.223656	1687.638794
6626.559002	0.100067	0.223656	1777.999390
6626.559901	0.101715	0.223656	1869.441284
6626.560789	0.100177	0.223656	1958.398437
6626.561735	0.099137	0.223656	2052.182129
6626.562638	0.100818	0.223656	2143.220703
6627.590092	0.711793	0.219668	309.630035
6627.591037	0.254941	0.219668	550.549683
6627.591947	0.249470	0.219668	777.567566
6627.592853	0.487009	0.219668	1218.797974
6627.593741	0.101257	0.219668	1308.714478
6627.594695	0.099822	0.219668	1403.944458
6627.595589	0.100071	0.219668	1493.407715
6627.596496	0.101953	0.219668	1585.879150
6627.597393	0.100331	0.219668	1675.875854
6627.598343	0.099474	0.219668	1770.375977
6627.599249	0.100554	0.219668	1861.478027
6627.600144	0.101158	0.219668	1952.014893
6627.601069	0.100104	0.219668	2044.610840
6627.601974	0.099309	0.219668	2134.485596
6628.585956	0.677900	0.226255	309.800476
6628.586857	0.254711	0.226255	539.294800
6628.587749	0.249591	0.226255	761.930054
6628.588711	0.487035	0.226255	1230.457642
6628.589617	0.100679	0.226255	1321.672607
6628.590542	0.102173	0.226255	1416.182495
6628.591431	0.102671	0.226255	1507.456909
6628.592389	0.101041	0.226255	1604.254395
6628.593289	0.101298	0.226255	1695.422241
6628.594178	0.102799	0.226255	1786.810669
6628.595130	0.099840	0.226255	1881.858398
6628.596045	0.100825	0.226255	1974.113403
6628.596959	0.101528	0.226255	2066.910400
6628.597847	0.101686	0.226255	2157.207275
6629.624327	0.592017	0.222947	297.192322
6629.625244	0.255333	0.222947	531.332886
6629.626144	0.248844	0.222947	755.292480
6629.627049	0.486855	0.222947	1195.896729
6629.627992	0.099023	0.222947	1289.275879
6629.628899	0.100397	0.222947	1380.335693
6629.629805	0.101290	0.222947	1472.104736
6629.630740	0.100400	0.222947	1565.979126
6629.631634	0.099558	0.222947	1654.984131
6629.632535	0.101854	0.222947	1746.754761
6629.633426	0.101909	0.222947	1837.555786
6629.634375	0.099320	0.222947	1931.810547
6629.635272	0.099525	0.222947	2021.084595
6629.636171	0.100437	0.222947	2111.377441
