time (s)	coil I (A)	last det (V)	int current (uC)
5899.890635	0.728203	0.183740	321.865784
5899.891621	0.254553	0.183740	572.855286
5899.892535	0.247753	0.183740	799.301270
5899.893472	0.420509	0.183740	1193.318237
5899.894361	0.100085	0.183740	1282.294189
5899.895316	0.100924	0.183740	1378.676636
5899.896212	0.101854	0.183740	1469.937988
5899.897101	0.100642	0.183740	1559.408813
5899.898043	0.100181	0.183740	1653.779053
5899.898945	0.100682	0.183740	1744.594604
5899.899864	0.100920	0.183740	1837.340454
5899.900760	0.101382	0.183740	1928.178589
5899.901712	0.099239	0.183740	2022.654541
5899.902626	0.099888	0.183740	2113.951904
5900.923339	0.705758	0.174466	309.122009
5900.924308	0.254619	0.174466	555.847961
5900.925225	0.247987	0.174466	783.252075
5900.926138	0.436047	0.174466	1181.363281
5900.927076	0.099459	0.174466	1274.656006
5900.927983	0.100045	0.174466	1365.396973
5900.928894	0.101067	0.174466	1457.468872
5900.929785	0.101265	0.174466	1547.695679
5900.930729	0.099756	0.174466	1641.865234
5900.931638	0.099723	0.174466	1732.513306
5900.932526	0.100858	0.174466	1822.075317
5900.933440	0.100005	0.174466	1913.479736
5900.934364	0.099152	0.174466	2005.095825
5900.935280	0.100529	0.174466	2097.179932
5901.944785	0.691381	0.182322	302.824707
5901.945693	0.254974	0.182322	534.341431
5901.946587	0.249390	0.182322	757.295776
5901.947575	0.429177	0.182322	1181.322876
5901.948483	0.100609	0.182322	1272.676025
5901.949383	0.101462	0.182322	1363.992187
5901.950321	0.099976	0.182322	1457.769287
5901.951229	0.099818	0.182322	1548.404175
5901.952135	0.100591	0.182322	1639.539429
5901.953021	0.101221	0.182322	1729.220947
5901.953967	0.099203	0.182322	1823.066895
5901.954861	0.099503	0.182322	1912.022705
5901.955756	0.101265	0.182322	2002.654541
5901.956668	0.100159	0.182322	2093.999268
5902.948370	0.564192	0.188336	281.531738
5902.949277	0.254517	0.188336	512.378296
5902.950207	0.247551	0.188336	742.600952
5902.951107	0.426486	0.188336	1126.437988
5902.952061	0.100034	0.188336	1221.870605
5902.952977	0.100785	0.188336	1314.189575
5902.953873	0.100957	0.188336	1404.647095
5902.954809	0.100140	0.188336	1498.378540
5902.955720	0.100668	0.188336	1590.086792
5902.956632	0.100631	0.188336	1681.862305
5902.957526	0.100353	0.188336	1771.577637
5902.958475	0.100671	0.188336	1867.114746
5902.959376	0.100258	0.188336	1957.446777
5902.960301	0.100576	0.188336	2050.479736
5903.976396	0.705201	0.183301	310.288605
5903.977370	0.255055	0.183301	558.712158
5903.978279	0.248328	0.183301	784.441956
5903.979187	0.435926	0.183301	1180.263184
5903.980134	0.099441	0.183301	1274.433716
5903.981040	0.100009	0.183301	1365.041504
5903.981939	0.101382	0.183301	1456.183838
5903.982830	0.100763	0.183301	1545.963623
5903.983791	0.099741	0.183301	1641.814941
5903.984695	0.100140	0.183301	1732.341797
5903.985584	0.101001	0.183301	1822.131714
5903.986500	0.099576	0.183301	1913.343750
5903.987410	0.098947	0.183301	2003.385132
5903.988317	0.099745	0.183301	2093.853760
5904.993738	0.718689	0.196546	316.223145
5904.994725	0.254711	0.196546	567.622620
5904.995626	0.248254	0.196546	791.299805
5904.996523	0.431726	0.196546	1178.558105
5904.997467	0.100031	0.196546	1272.986938
5904.998371	0.101473	0.196546	1364.718872
5904.999290	0.100920	0.196546	1457.464722
5905.000187	0.101418	0.196546	1548.437134
5905.001130	0.099598	0.196546	1642.358398
5905.002036	0.099994	0.196546	1732.952881
5905.002967	0.100931	0.196546	1826.920044
5905.003856	0.100093	0.196546	1915.902466
5905.004800	0.099774	0.196546	2010.089233
5905.005693	0.100345	0.196546	2099.697754
5905.996237	0.701100	0.189536	310.587250
5905.997212	0.255095	0.189536	559.305054
5905.998129	0.248280	0.189536	786.977844
5905.999033	0.422688	0.189536	1169.087769
5905.999971	0.099155	0.189536	1262.095459
5906.000882	0.099796	0.189536	1353.009766
5906.001780	0.100906	0.189536	1443.623169
5906.002667	0.100199	0.189536	1532.499634
5906.003606	0.099500	0.189536	1625.929687
5906.004515	0.099763	0.189536	1716.614380
5906.005414	0.100287	0.189536	1806.772217
5906.006339	0.099496	0.189536	1898.805908
5906.007254	0.099152	0.189536	1989.529663
5906.008164	0.100393	0.189536	2080.887451
5907.041750	0.715708	0.191764	322.784302
5907.042690	0.254542	0.191764	562.054016
5907.043589	0.248544	0.191764	785.494812
5907.044555	0.428734	0.191764	1199.651978
5907.045453	0.100994	0.191764	1290.344238
5907.046345	0.101843	0.191764	1381.188477
5907.047295	0.100258	0.191764	1476.433105
5907.048202	0.101580	0.191764	1568.565796
5907.049107	0.100441	0.191764	1659.464600
5907.050000	0.100851	0.191764	1749.524414
5907.050945	0.099814	0.191764	1843.849121
5907.051864	0.100280	0.191764	1936.005981
5907.052772	0.101188	0.191764	2027.884399
5907.053659	0.099917	0.191764	2116.510742
5908.024779	0.721765	0.205017	316.133118
5908.025674	0.254476	0.205017	543.889404
5908.026654	0.248496	0.205017	787.415588
5908.027568	0.426621	0.205017	1177.347290
5908.028467	0.100675	0.205017	1267.854126
5908.029374	0.100752	0.205017	1359.236084
5908.030308	0.099987	0.205017	1452.623535
5908.031213	0.100668	0.205017	1543.727783
5908.032104	0.101082	0.205017	1633.791382
5908.033043	0.099675	0.205017	1727.386475
5908.033948	0.099243	0.205017	1817.201538
5908.034851	0.100774	0.205017	1908.200439
5908.035739	0.100455	0.205017	1997.404785
5908.036686	0.098979	0.205017	2091.138428
5909.077978	0.714174	0.183893	322.092285
5909.078871	0.254557	0.183893	549.411621
5909.079809	0.249426	0.183893	783.373474
5909.080735	0.417396	0.183893	1169.882324
5909.081630	0.099727	0.183893	1259.137573
5909.082522	0.102048	0.183893	1350.164673
5909.083469	0.100375	0.183893	1445.219604
5909.084382	0.100382	0.183893	1536.868408
5909.085284	0.101503	0.183893	1628.423828
5909.086174	0.100741	0.183893	1718.083252
5909.087120	0.099360	0.183893	1812.078125
5909.088025	0.100001	0.183893	1902.579224
5909.088917	0.099877	0.183893	1991.669189
5909.089838	0.099441	0.183893	2083.254395
5910.063115	0.541567	0.206266	268.075867
5910.064028	0.254539	0.206266	500.469574
5910.064933	0.248130	0.206266	725.027100
5910.065849	0.388568	0.206266	1080.955566
5910.066786	0.098892	0.206266	1173.616943
5910.067695	0.100272	0.206266	1264.764404
5910.068589	0.100602	0.206266	1354.702393
5910.069513	0.099844	0.206266	1446.958008
5910.070422	0.099595	0.206266	1537.489624
5910.071321	0.101257	0.206266	1628.520020
5910.072206	0.100272	0.206266	1717.260986
5910.073145	0.099207	0.206266	1810.415894
5910.074044	0.099642	0.206266	1899.994385
5910.074943	0.100532	0.206266	1990.372803
5911.108045	0.720084	0.186116	314.676788
5911.108941	0.254425	0.186116	542.641602
5911.109919	0.248602	0.186116	785.774658
5911.110847	0.423845	0.186116	1179.103027
5911.111740	0.100184	0.186116	1268.567627
5911.112680	0.100195	0.186116	1362.751221
5911.113582	0.099928	0.186116	1452.886230
5911.114485	0.100737	0.186116	1543.852051
5911.115377	0.100594	0.186116	1633.582275
5911.116332	0.099423	0.186116	1728.530884
5911.117226	0.099719	0.186116	1817.679932
5911.118127	0.100594	0.186116	1908.315552
5911.119018	0.099847	0.186116	1997.279541
5911.119976	0.099137	0.186116	2092.252686
5912.103371	0.720450	0.200671	316.998199
5912.104329	0.254938	0.200671	561.228516
5912.105265	0.248284	0.200671	793.622070
5912.106177	0.428038	0.200671	1183.993042
5912.107110	0.099368	0.200671	1276.703125
5912.108032	0.101437	0.200671	1370.227783
5912.108947	0.100770	0.200671	1462.432617
5912.109834	0.101250	0.200671	1552.241333
5912.110784	0.100426	0.200671	1647.645996
5912.111701	0.100532	0.200671	1739.833984
5912.112627	0.100741	0.200671	1833.120117
5912.113515	0.100247	0.200671	1922.139038
5912.114450	0.100697	0.200671	2016.290771
5912.115377	0.100441	0.200671	2109.399170
5913.139190	0.693959	0.188840	335.876007
5913.140110	0.254755	0.188840	570.250244
5913.141015	0.248474	0.188840	795.119324
5913.141921	0.429012	0.188840	1183.804565
5913.142874	0.099130	0.188840	1278.275146
5913.143785	0.100477	0.188840	1369.809937
5913.144676	0.101122	0.188840	1459.909424
5913.145592	0.100459	0.188840	1551.929810
5913.146521	0.099697	0.188840	1644.548584
5913.147428	0.101001	0.188840	1736.156494
5913.148329	0.101217	0.188840	1827.353027
5913.149263	0.099261	0.188840	1920.063232
5913.150168	0.099247	0.188840	2009.881592
5913.151072	0.100968	0.188840	2101.156738
5914.141644	0.705590	0.204933	308.342651
5914.142543	0.254641	0.204933	537.265015
5914.143512	0.248961	0.204933	778.508423
5914.144430	0.435220	0.204933	1178.040161
5914.145321	0.100250	0.204933	1267.363159
5914.146265	0.100206	0.204933	1361.957886
5914.147173	0.100386	0.204933	1453.108154
5914.148067	0.100953	0.204933	1543.360474
5914.148950	0.100280	0.204933	1631.907349
5914.149884	0.099368	0.204933	1724.716797
5914.150790	0.100756	0.204933	1816.001343
5914.151679	0.100635	0.204933	1905.465698
5914.152595	0.099836	0.204933	1996.915894
5914.153514	0.099265	0.204933	2088.140625
5915.173849	0.672883	0.190004	304.143250
5915.174750	0.254865	0.190004	533.776184
5915.175702	0.248895	0.190004	770.724487
5915.176622	0.437347	0.190004	1173.084106
5915.177515	0.100580	0.190004	1262.901855
5915.178405	0.101239	0.190004	1353.004639
5915.179347	0.099950	0.190004	1447.157471
5915.180256	0.100825	0.190004	1538.807617
5915.181154	0.101136	0.190004	1629.628174
5915.182071	0.099954	0.190004	1721.285645
5915.182986	0.099342	0.190004	1812.183594
5915.183889	0.100060	0.190004	1902.537598
5915.184786	0.100737	0.190004	1992.898926
5915.185731	0.099272	0.190004	2086.711426
5916.176855	0.690344	0.205174	311.345276
5916.177751	0.254312	0.205174	539.208374
5916.178692	0.248961	0.205174	773.480835
5916.179621	0.437076	0.205174	1179.524902
5916.180529	0.100657	0.205174	1270.921265
5916.181419	0.101180	0.205174	1360.971802
5916.182354	0.099939	0.205174	1454.414795
5916.183260	0.100133	0.205174	1545.135376
5916.184161	0.100693	0.205174	1635.860107
5916.185047	0.100419	0.205174	1724.831055
5916.186002	0.099229	0.205174	1819.594238
5916.186904	0.099661	0.205174	1909.488159
5916.187796	0.100675	0.205174	1999.290283
5916.188736	0.099452	0.205174	2092.775146
5917.211098	0.715001	0.194810	318.175537
5917.211993	0.254528	0.194810	545.977722
5917.212950	0.248785	0.194810	784.065308
5917.213857	0.418916	0.194810	1164.022095
5917.214743	0.100477	0.194810	1253.044922
5917.215667	0.100474	0.194810	1345.882568
5917.216590	0.099939	0.194810	1438.126221
5917.217497	0.101312	0.194810	1530.016479
5917.218384	0.100657	0.194810	1619.299072
5917.219326	0.099690	0.194810	1713.207031
5917.220233	0.099858	0.194810	1803.778564
5917.221132	0.100437	0.194810	1894.071411
5917.222017	0.100195	0.194810	1982.744263
5917.222963	0.099174	0.194810	2076.562500
5918.207448	0.678285	0.209146	301.836792
5918.208345	0.254473	0.209146	530.098755
5918.209309	0.248434	0.209146	769.588989
5918.210237	0.433451	0.209146	1171.831421
5918.211127	0.100540	0.209146	1261.311646
5918.212070	0.100012	0.209146	1355.623169
5918.212965	0.099895	0.209146	1445.029175
5918.213871	0.101982	0.209146	1537.425293
5918.214758	0.100770	0.209146	1626.808472
5918.215704	0.099298	0.209146	1720.744507
5918.216609	0.099624	0.209146	1810.904297
5918.217503	0.100430	0.209146	1900.688477
5918.218416	0.100225	0.209146	1992.193604
5918.219341	0.098947	0.209146	2083.719238
5919.250885	0.732008	0.195212	315.495453
5919.251827	0.254498	0.195212	555.232788
5919.252742	0.248716	0.195212	782.807739
5919.253650	0.435311	0.195212	1178.070312
5919.254536	0.099496	0.195212	1266.223633
5919.255485	0.099664	0.195212	1360.805054
5919.256380	0.100016	0.195212	1450.319214
5919.257283	0.100540	0.195212	1541.106445
5919.258176	0.100071	0.195212	1630.469727
5919.259128	0.099514	0.195212	1725.207275
5919.260042	0.100664	0.195212	1817.214233
5919.260941	0.101389	0.195212	1908.363037
5919.261871	0.099675	0.195212	2001.061035
5919.262773	0.099258	0.195212	2090.591553
5920.237019	0.714844	0.208824	321.679687
5920.237923	0.254744	0.208824	551.967957
5920.238815	0.249602	0.208824	774.612976
5920.239780	0.415844	0.208824	1175.901978
5920.240695	0.100236	0.208824	1267.617554
5920.241592	0.101367	0.208824	1358.543945
5920.242528	0.100778	0.208824	1452.871826
5920.243448	0.101019	0.208824	1545.809570
5920.244350	0.100873	0.208824	1636.796875
5920.245238	0.100997	0.208824	1726.482544
5920.246177	0.099580	0.208824	1819.988281
5920.247088	0.100100	0.208824	1911.179443
5920.248005	0.100884	0.208824	2003.689941
5920.248893	0.100005	0.208824	2092.494385
5921.291784	0.609185	0.198238	305.201477
5921.292707	0.254930	0.198238	540.502258
5921.293617	0.248196	0.198238	766.360413
5921.294514	0.426639	0.198238	1149.055908
5921.295478	0.099155	0.198238	1244.641602
5921.296389	0.100111	0.198238	1335.842773
5921.297281	0.101166	0.198238	1426.082642
5921.298210	0.100312	0.198238	1519.272949
5921.299113	0.099510	0.198238	1609.130981
5921.300011	0.100514	0.198238	1699.392456
5921.300913	0.100382	0.198238	1789.937134
5921.301852	0.098994	0.198238	1882.892578
5921.302765	0.099382	0.198238	1973.628662
5921.303670	0.101045	0.198238	2065.074219
5922.269174	0.614136	0.203813	292.328613
5922.270077	0.254652	0.203813	522.279419
5922.270975	0.248968	0.203813	745.853149
5922.271931	0.399595	0.203813	1127.865723
5922.272842	0.099324	0.203813	1218.349609
5922.273744	0.101353	0.203813	1309.769653
5922.274634	0.101195	0.203813	1399.833252
5922.275599	0.099738	0.203813	1496.079956
5922.276511	0.100730	0.203813	1587.945679
5922.277405	0.101455	0.203813	1678.646484
5922.278292	0.100510	0.203813	1767.799072
5922.279253	0.099430	0.203813	1863.351196
5922.280146	0.100792	0.203813	1953.358643
5922.281036	0.100833	0.203813	2043.099609
5923.322855	0.687741	0.206367	315.672882
5923.323749	0.254890	0.206367	543.544678
5923.324701	0.249174	0.206367	780.757935
5923.325625	0.425830	0.206367	1174.224854
5923.326522	0.100078	0.206367	1263.994873
5923.327412	0.101232	0.206367	1354.091064
5923.328344	0.099803	0.206367	1447.107910
5923.329250	0.100225	0.206367	1537.911377
5923.330157	0.101082	0.206367	1629.592285
5923.331048	0.100638	0.206367	1719.261108
5923.331987	0.099401	0.206367	1812.598267
5923.332887	0.099979	0.206367	1902.579590
5923.333780	0.100741	0.206367	1992.541260
5923.334717	0.099463	0.206367	2085.738037
5924.314644	0.719623	0.192650	367.007629
5924.315557	0.255051	0.192650	599.869446
5924.316469	0.248368	0.192650	826.380981
5924.317365	0.421102	0.192650	1203.688599
5924.318299	0.098800	0.192650	1295.967896
5924.319207	0.099998	0.192650	1386.765625
5924.320111	0.101261	0.192650	1478.305542
5924.321000	0.100228	0.192650	1567.408447
5924.321945	0.099521	0.192650	1661.456299
5924.322854	0.099968	0.192650	1752.327393
5924.323746	0.100616	0.192650	1842.077271
5924.324676	0.099716	0.192650	1934.812744
5924.325578	0.099287	0.192650	2024.369751
5924.326480	0.100540	0.192650	2115.056396
5925.342676	0.705179	0.212607	316.625580
5925.343580	0.254279	0.212607	546.493408
5925.344521	0.248654	0.212607	780.476440
5925.345453	0.431620	0.212607	1182.746216
5925.346350	0.101071	0.212607	1273.406494
5925.347237	0.101448	0.212607	1363.390625
5925.348194	0.099899	0.212607	1458.993652
5925.349093	0.099789	0.212607	1548.703857
5925.349987	0.101437	0.212607	1639.388306
5925.350877	0.099869	0.212607	1728.272095
5925.351827	0.099155	0.212607	1822.469604
5925.352732	0.100056	0.212607	1913.020386
5925.353632	0.101104	0.212607	2004.013550
5925.354565	0.099119	0.212607	2096.491211
5926.365142	0.700455	0.199994	308.200348
5926.366061	0.254637	0.199994	542.212158
5926.366967	0.249163	0.199994	767.953491
5926.367920	0.437787	0.199994	1185.164307
5926.368834	0.099111	0.199994	1275.752075
5926.369741	0.100452	0.199994	1366.861694
5926.370629	0.100627	0.199994	1456.218872
5926.371587	0.099642	0.199994	1551.676270
5926.372489	0.100353	0.199994	1642.194458
5926.373384	0.100349	0.199994	1732.006958
5926.374317	0.099668	0.199994	1824.997192
5926.375220	0.099357	0.199994	1914.716309
5926.376133	0.099803	0.199994	2005.836914
5926.377032	0.100994	0.199994	2096.630127
5927.365652	0.730239	0.212478	373.882507
5927.366581	0.254777	0.212478	610.570007
5927.367512	0.247676	0.212478	841.156128
5927.368408	0.424688	0.212478	1221.676147
5927.369358	0.099712	0.212478	1316.402466
5927.370264	0.100653	0.212478	1407.594116
5927.371186	0.100913	0.212478	1500.635986
5927.372075	0.100349	0.212478	1589.846313
5927.373024	0.100060	0.212478	1684.803101
5927.373948	0.100272	0.212478	1777.454590
5927.374839	0.100774	0.212478	1867.244141
5927.375785	0.100492	0.212478	1962.309570
5927.376694	0.100181	0.212478	2053.373779
5927.377616	0.100133	0.212478	2145.696533
5928.401362	0.691443	0.216276	305.617737
5928.402282	0.254659	0.216276	539.904419
5928.403188	0.249181	0.216276	765.662292
5928.404140	0.379585	0.216276	1127.027100
5928.405047	0.098782	0.216276	1216.622070
5928.405954	0.101448	0.216276	1308.635132
5928.406847	0.101023	0.216276	1398.848633
5928.407777	0.099734	0.216276	1491.601196
5928.408683	0.099708	0.216276	1581.936890
5928.409585	0.100928	0.216276	1672.973755
5928.410478	0.100378	0.216276	1762.611694
5928.411435	0.099342	0.216276	1857.682007
5928.412347	0.099818	0.216276	1948.716187
5928.413243	0.099935	0.216276	2038.258179
5929.410515	0.701100	0.198298	312.690552
5929.411482	0.254872	0.198298	559.151611
5929.412405	0.248240	0.198298	788.276855
5929.413308	0.431646	0.198298	1178.052734
5929.414242	0.099404	0.198298	1270.896362
5929.415151	0.099734	0.198298	1361.554443
5929.416044	0.101678	0.198298	1452.353271
5929.416935	0.100554	0.198298	1541.947021
5929.417875	0.099397	0.198298	1635.380127
5929.418780	0.099672	0.198298	1725.583008
5929.419678	0.100671	0.198298	1815.985962
5929.420584	0.100012	0.198298	1906.597046
5929.421515	0.099056	0.198298	1998.818604
5929.422423	0.100195	0.198298	2089.795898
5930.416585	0.718077	0.210661	313.799805
5930.417560	0.255000	0.210661	562.424805
5930.418466	0.248705	0.210661	787.751343
5930.419377	0.426610	0.210661	1176.393188
5930.420262	0.099877	0.210661	1264.784058
5930.421199	0.099686	0.210661	1358.190063
5930.422115	0.100074	0.210661	1449.858276
5930.423011	0.101184	0.210661	1540.519165
5930.423939	0.100693	0.210661	1633.962646
5930.424840	0.099521	0.210661	1723.631470
5930.425750	0.100452	0.210661	1815.042480
5930.426644	0.101869	0.210661	1906.113281
5930.427577	0.099628	0.210661	1999.065918
5930.428483	0.099474	0.210661	2089.189209
5931.464664	0.690461	0.210133	303.112549
5931.465590	0.254385	0.210133	538.672852
5931.466495	0.248899	0.210133	763.926392
5931.467450	0.433788	0.210133	1178.193848
5931.468353	0.098815	0.210133	1267.423462
5931.469258	0.101521	0.210133	1359.299927
5931.470151	0.100422	0.210133	1448.977051
5931.471097	0.099543	0.210133	1543.145142
5931.472005	0.100009	0.210133	1633.952881
5931.472901	0.100529	0.210133	1724.026489
5931.473834	0.099935	0.210133	1817.266113
5931.474734	0.099283	0.210133	1906.621216
5931.475642	0.100140	0.210133	1997.548706
5931.476541	0.100463	0.210133	2087.864746
5932.442081	0.663794	0.198056	303.353851
5932.442978	0.255114	0.198056	532.190674
5932.443929	0.249218	0.198056	769.196533
5932.444840	0.437197	0.198056	1167.483154
5932.445746	0.101169	0.198056	1259.142700
5932.446633	0.100840	0.198056	1348.587646
5932.447563	0.099939	0.198056	1441.530884
5932.448470	0.100554	0.198056	1532.733521
5932.449371	0.100422	0.198056	1623.214111
5932.450283	0.100122	0.198056	1714.525391
5932.451215	0.099181	0.198056	1806.962036
5932.452120	0.099738	0.198056	1897.224487
5932.453010	0.099939	0.198056	1986.170166
5932.453959	0.099265	0.198056	2080.372803
5933.495261	0.691315	0.219838	312.474243
5933.496156	0.254458	0.219838	540.214172
5933.497105	0.248643	0.219838	776.175964
5933.498034	0.433934	0.219838	1179.301025
5933.498929	0.099840	0.219838	1268.657959
5933.499820	0.100939	0.219838	1358.594360
5933.500771	0.099767	0.219838	1453.472656
5933.501676	0.099760	0.219838	1543.755005
5933.502580	0.101532	0.219838	1635.539917
5933.503477	0.099998	0.219838	1725.237671
5933.504412	0.099313	0.219838	1818.095093
5933.505322	0.100393	0.219838	1909.452759
5933.506209	0.101426	0.219838	1999.417480
5933.507141	0.099558	0.219838	2092.205566
5934.492617	0.718422	0.193110	312.513428
5934.493569	0.254791	0.193110	555.074707
5934.494481	0.248936	0.193110	782.103943
5934.495392	0.427775	0.193110	1171.806641
5934.496275	0.099998	0.193110	1260.104492
5934.497226	0.099976	0.193110	1355.181274
5934.498137	0.100038	0.193110	1446.315796
5934.499040	0.101327	0.193110	1537.813965
5934.499930	0.101195	0.193110	1627.877563
5934.500887	0.099430	0.193110	1723.031982
5934.501789	0.099620	0.193110	1812.889526
5934.502687	0.100598	0.193110	1903.226685
5934.503620	0.099811	0.193110	1996.350098
5934.504525	0.098979	0.193110	2085.926514
5935.508444	0.687052	0.203660	308.486359
5935.509351	0.254498	0.203660	539.316284
5935.510253	0.249027	0.203660	763.938721
5935.511209	0.438343	0.203660	1182.995117
5935.512117	0.099847	0.203660	1273.656616
5935.513037	0.101191	0.203660	1366.752686
5935.513925	0.101107	0.203660	1456.535889
5935.514884	0.099983	0.203660	1552.419556
5935.515782	0.101895	0.203660	1643.920898
5935.516673	0.100961	0.203660	1733.876831
5935.517583	0.099357	0.203660	1824.291382
5935.518508	0.100210	0.203660	1916.985596
5935.519408	0.100265	0.203660	2007.223999
5935.520293	0.100089	0.203660	2095.802979
5936.541652	0.691890	0.204397	307.890900
5936.542549	0.254630	0.204397	536.294128
5936.543488	0.249159	0.204397	770.254395
5936.544422	0.426160	0.204397	1168.287476
5936.545319	0.100518	0.204397	1258.451782
5936.546206	0.100671	0.204397	1347.747314
5936.547159	0.099910	0.204397	1442.961182
5936.548056	0.100159	0.204397	1532.803467
5936.548952	0.101473	0.204397	1623.723633
5936.549862	0.099829	0.204397	1714.568115
5936.550796	0.099141	0.204397	1807.165405
5936.551707	0.099774	0.204397	1898.059692
5936.552606	0.100880	0.204397	1988.750977
5936.553538	0.099034	0.204397	2081.051025
5937.541091	0.691754	0.199696	312.672882
5937.541992	0.254978	0.199696	542.408081
5937.542890	0.249558	0.199696	766.511230
5937.543843	0.438040	0.199696	1183.962891
5937.544756	0.099082	0.199696	1274.424805
5937.545663	0.102345	0.199696	1367.251709
5937.546553	0.100664	0.199696	1456.842773
5937.547518	0.099778	0.199696	1553.128418
5937.548420	0.100679	0.199696	1643.940674
5937.549330	0.100569	0.199696	1735.458374
5937.550236	0.099694	0.199696	1825.780762
5937.551168	0.099507	0.199696	1918.521118
5937.552066	0.100404	0.199696	2008.683960
5937.552954	0.100250	0.199696	2097.706055
5938.567648	0.675524	0.216820	306.687744
5938.568547	0.254612	0.216820	535.583740
5938.569441	0.249210	0.216820	758.377686
5938.570408	0.424871	0.216820	1169.227539
5938.571319	0.099141	0.216820	1259.544678
5938.572218	0.101217	0.216820	1350.538818
5938.573149	0.100551	0.216820	1444.151367
5938.574064	0.099818	0.216820	1535.484985
5938.574965	0.100668	0.216820	1626.186646
5938.575851	0.100562	0.216820	1715.284180
5938.576806	0.099576	0.216820	1810.379639
5938.577708	0.099565	0.216820	1900.187622
5938.578610	0.100349	0.216820	1990.702515
5938.579495	0.100258	0.216820	2079.430420
5939.593222	0.690685	0.198310	343.961029
5939.594152	0.255146	0.198310	581.247253
5939.595060	0.248104	0.198310	806.525940
5939.595961	0.437329	0.198310	1200.559448
5939.596917	0.099166	0.198310	1295.362427
5939.597825	0.100034	0.198310	1386.193481
5939.598721	0.100774	0.198310	1476.486938
5939.599637	0.100573	0.198310	1568.611328
5939.600551	0.099576	0.198310	1659.624146
5939.601459	0.100137	0.198310	1750.548340
5939.602360	0.100203	0.198310	1840.830933
5939.603285	0.099412	0.198310	1932.786621
5939.604193	0.099327	0.198310	2022.975830
5939.605097	0.100316	0.198310	2113.661621
5940.586960	0.715206	0.198076	318.266815
5940.587936	0.255245	0.198076	567.386292
5940.588834	0.248756	0.198076	790.769287
5940.589735	0.440380	0.198076	1187.551270
5940.590672	0.099434	0.198076	1280.720581
5940.591583	0.101019	0.198076	1372.749146
5940.592499	0.101796	0.198076	1465.994019
5940.593396	0.101426	0.198076	1556.972900
5940.594357	0.100107	0.198076	1653.176147
5940.595259	0.100726	0.198076	1744.031250
5940.596150	0.100441	0.198076	1833.523926
5940.597071	0.100192	0.198076	1925.800415
5940.597988	0.099807	0.198076	2017.323608
5940.598884	0.100822	0.198076	2107.659668
5941.639687	0.703978	0.206355	349.877197
5941.640602	0.254813	0.206355	583.031311
5941.641509	0.248375	0.206355	808.307617
5941.642409	0.426156	0.206355	1191.848022
5941.643360	0.099093	0.206355	1286.085449
5941.644259	0.101173	0.206355	1377.040039
5941.645156	0.101715	0.206355	1468.278442
5941.646076	0.100206	0.206355	1560.468262
5941.646995	0.099500	0.206355	1651.908325
5941.647900	0.100393	0.206355	1742.764038
5941.648801	0.100518	0.206355	1833.330322
5941.649741	0.099280	0.206355	1926.653320
5941.650637	0.099159	0.206355	2015.499756
5941.651537	0.100675	0.206355	2106.107422
5942.620159	0.556344	0.199406	272.608582
5942.621088	0.254634	0.199406	509.163361
5942.621995	0.248009	0.199406	734.107544
5942.622896	0.429126	0.199406	1120.750000
5942.623850	0.099137	0.199406	1215.326660
5942.624754	0.101569	0.199406	1307.144653
5942.625646	0.101107	0.199406	1397.332275
5942.626592	0.100140	0.199406	1492.065063
5942.627500	0.100452	0.199406	1583.275146
5942.628392	0.100378	0.199406	1672.812744
5942.629283	0.101012	0.199406	1762.814453
5942.630233	0.099005	0.199406	1856.869385
5942.631147	0.099913	0.199406	1948.190186
5942.632053	0.100261	0.199406	2039.026855
5943.672268	0.725552	0.221594	318.517212
5943.673243	0.255223	0.221594	567.359985
5943.674161	0.248346	0.221594	795.341553
5943.675062	0.423761	0.221594	1177.150146
5943.676025	0.099825	0.221594	1273.281982
5943.676921	0.099946	0.221594	1362.833862
5943.677819	0.100712	0.221594	1453.272949
5943.678704	0.100646	0.221594	1542.344482
5943.679633	0.099456	0.221594	1634.738647
5943.680542	0.099510	0.221594	1725.193726
5943.681445	0.101459	0.221594	1816.811035
5943.682332	0.100997	0.221594	1906.395630
5943.683266	0.098987	0.221594	1998.849365
5943.684169	0.100001	0.221594	2089.150391
5944.661962	0.718228	0.193388	316.020111
5944.662924	0.254843	0.193388	561.178589
5944.663850	0.248394	0.193388	791.191040
5944.664768	0.432964	0.193388	1188.651855
5944.665657	0.099481	0.193388	1277.090698
5944.666631	0.099811	0.193388	1374.306396
5944.667540	0.100338	0.193388	1465.513794
5944.668436	0.100562	0.193388	1555.616943
5944.669379	0.100133	0.193388	1650.042358
5944.670275	0.099452	0.193388	1739.151245
5944.671177	0.100419	0.193388	1829.728882
5944.672061	0.100884	0.193388	1918.910156
5944.673001	0.099342	0.193388	2012.291626
5944.673904	0.100305	0.193388	2102.867187
5945.695691	0.718971	0.212301	316.347229
5945.696673	0.254623	0.212301	566.386841
5945.697588	0.247885	0.212301	793.201172
5945.698500	0.419429	0.212301	1175.720215
5945.699387	0.099239	0.212301	1263.745605
5945.700318	0.099774	0.212301	1356.635376
5945.701225	0.100598	0.212301	1447.877930
5945.702115	0.101602	0.212301	1538.303345
5945.703040	0.099811	0.212301	1630.628296
5945.703947	0.100016	0.212301	1721.342651
5945.704850	0.101052	0.212301	1812.592773
5945.705746	0.099814	0.212301	1902.026489
5945.706688	0.099368	0.212301	1995.630859
5945.707582	0.099767	0.212301	2084.822510
5946.707416	0.687140	0.184191	310.587250
5946.708314	0.254747	0.184191	539.350342
5946.709263	0.248943	0.184191	775.597107
5946.710196	0.436527	0.184191	1182.876953
5946.711102	0.099910	0.184191	1273.395142
5946.711991	0.100986	0.184191	1363.171997
5946.712946	0.099917	0.184191	1458.592773
5946.713861	0.099950	0.184191	1550.046997
5946.714753	0.101052	0.184191	1640.185547
5946.715689	0.100148	0.184191	1733.923828
5946.716595	0.099269	0.184191	1823.861328
5946.717493	0.101012	0.184191	1914.570068
5946.718387	0.100609	0.184191	2004.514648
5946.719323	0.099060	0.184191	2097.234863
5947.724255	0.686503	0.204147	310.985718
5947.725152	0.254344	0.204147	539.132690
5947.726121	0.248262	0.204147	779.698303
5947.727043	0.411665	0.204147	1159.253418
5947.727934	0.100111	0.204147	1248.452393
5947.728864	0.100144	0.204147	1341.586304
5947.729779	0.099697	0.204147	1432.809326
5947.730687	0.101774	0.204147	1525.219849
5947.731580	0.100562	0.204147	1615.021240
5947.732515	0.099261	0.204147	1707.830688
5947.733421	0.099155	0.204147	1797.665405
5947.734325	0.100587	0.204147	1888.596191
5947.735214	0.100477	0.204147	1977.920532
5947.736150	0.099060	0.204147	2070.640625
5948.749256	0.733037	0.191031	321.803284
5948.750234	0.254883	0.191031	571.078674
5948.751131	0.248529	0.191031	794.009216
5948.752028	0.440105	0.191031	1188.783447
5948.752955	0.099401	0.191031	1280.927856
5948.753883	0.100540	0.191031	1374.228516
5948.754787	0.101309	0.191031	1465.811523
5948.755678	0.101294	0.191031	1556.064453
5948.756630	0.099745	0.191031	1651.021606
5948.757549	0.100261	0.191031	1743.161621
5948.758461	0.100807	0.191031	1835.097534
5948.759348	0.099983	0.191031	1923.782349
5948.760278	0.099470	0.191031	2016.289673
5948.761174	0.101100	0.191031	2106.875244
5949.755859	0.691663	0.207374	307.789856
5949.756777	0.254670	0.207374	541.577271
5949.757684	0.249360	0.207374	767.747070
5949.758615	0.364406	0.207374	1107.008545
5949.759532	0.099060	0.207374	1197.846680
5949.760439	0.101074	0.207374	1289.520996
5949.761328	0.101019	0.207374	1379.327148
5949.762263	0.099899	0.207374	1472.732422
5949.763173	0.099833	0.207374	1563.580200
5949.764078	0.100609	0.207374	1654.631470
5949.764970	0.100616	0.207374	1744.381348
5949.765932	0.099071	0.207374	1839.687744
5949.766840	0.099899	0.207374	1930.395752
5949.767734	0.100349	0.207374	2020.107910
5950.788041	0.728470	0.204091	319.070068
5950.788990	0.254637	0.204091	560.721008
5950.789913	0.248866	0.204091	790.424316
5950.790823	0.423369	0.204091	1175.690186
5950.791713	0.100426	0.204091	1265.069336
5950.792656	0.099924	0.204091	1359.297974
5950.793573	0.100272	0.204091	1451.247559
5950.794468	0.100510	0.204091	1541.204224
5950.795358	0.100210	0.204091	1630.391113
5950.796298	0.099232	0.204091	1723.669312
5950.797199	0.100280	0.204091	1814.021240
5950.798086	0.099584	0.204091	1902.352051
5950.799023	0.098892	0.204091	1995.013428
5950.799919	0.099177	0.204091	2083.876221
5951.790537	0.724329	0.220635	318.704559
5951.791432	0.254348	0.220635	546.346130
5951.792406	0.248566	0.220635	788.449097
5951.793330	0.430397	0.220635	1186.135620
5951.794221	0.100342	0.220635	1275.540161
5951.795155	0.100397	0.220635	1369.310669
5951.796061	0.099822	0.220635	1459.749146
5951.796965	0.100616	0.220635	1550.706421
5951.797865	0.100887	0.220635	1641.505127
5951.798795	0.099712	0.220635	1734.237183
5951.799701	0.099276	0.220635	1824.181396
5951.800608	0.100426	0.220635	1915.267822
5951.801497	0.100206	0.220635	2004.351196
5951.802443	0.099130	0.220635	2098.127930
5952.823251	0.700572	0.211398	313.856476
5952.824148	0.254275	0.211398	541.941040
5952.825095	0.248723	0.211398	777.481812
5952.826017	0.435077	0.211398	1178.622681
5952.826922	0.099741	0.211398	1268.888428
5952.827813	0.100704	0.211398	1358.615967
5952.828770	0.099778	0.211398	1454.103394
5952.829669	0.099734	0.211398	1543.764160
5952.830571	0.100551	0.211398	1634.460693
5952.831456	0.100331	0.211398	1723.253418
5952.832408	0.099239	0.211398	1817.729370
5952.833312	0.100020	0.211398	1908.146973
5952.834204	0.100100	0.211398	1997.436279
5952.835133	0.099514	0.211398	2089.885010
5953.825793	0.558252	0.226690	272.985229
5953.826708	0.254879	0.226690	506.199646
5953.827609	0.248588	0.226690	730.177124
5953.828511	0.410273	0.226690	1100.243774
5953.829443	0.099071	0.226690	1192.578003
5953.830353	0.100452	0.226690	1283.989014
5953.831243	0.101733	0.226690	1374.531738
5953.832178	0.099635	0.226690	1467.690430
5953.833093	0.100188	0.226690	1559.362427
5953.833993	0.100441	0.226690	1649.759033
5953.834880	0.100254	0.226690	1738.684204
5953.835818	0.099137	0.226690	1831.674683
5953.836726	0.100331	0.226690	1922.775024
5953.837626	0.100873	0.226690	2013.560547
5954.855888	0.700302	0.212945	310.233582
5954.856787	0.254894	0.212945	539.383057
5954.857682	0.249653	0.212945	762.822754
5954.858661	0.432499	0.212945	1186.239014
5954.859562	0.099357	0.212945	1275.759399
5954.860461	0.101982	0.212945	1367.441650
5954.861365	0.100532	0.212945	1458.322754
5954.862302	0.099690	0.212945	1551.732178
5954.863210	0.100463	0.212945	1642.952271
5954.864104	0.100887	0.212945	1733.145630
5954.865050	0.099287	0.212945	1827.071289
5954.865954	0.099258	0.212945	1916.800293
5954.866850	0.101261	0.212945	2007.530151
5954.867737	0.100697	0.212945	2096.848389
5955.862481	0.700657	0.226319	309.690277
5955.863386	0.254751	0.226319	540.239929
5955.864283	0.249602	0.226319	764.132935
5955.865258	0.423728	0.226319	1177.267822
5955.866164	0.099163	0.226319	1267.109131
5955.867057	0.100411	0.226319	1356.776489
5955.867972	0.100258	0.226319	1448.512207
5955.868895	0.099730	0.226319	1540.563232
5955.869810	0.101184	0.226319	1633.146606
5955.870707	0.100917	0.226319	1723.668945
5955.871637	0.099796	0.226319	1816.479370
5955.872538	0.099481	0.226319	1906.111938
5955.873446	0.100902	0.226319	1997.731079
5955.874335	0.100056	0.226319	2086.680908
5956.884425	0.714836	0.206190	313.813202
5956.885389	0.254799	0.206190	559.439026
5956.886314	0.248243	0.206190	789.064209
5956.887219	0.436754	0.206190	1184.326660
5956.888162	0.099338	0.206190	1278.002808
5956.889069	0.100327	0.206190	1368.999512
5956.889970	0.101063	0.206190	1460.057495
5956.890857	0.100616	0.206190	1549.304321
5956.891803	0.099606	0.206190	1643.531372
5956.892712	0.099727	0.206190	1734.182861
5956.893608	0.099935	0.206190	1823.724854
5956.894513	0.099833	0.206190	1914.073486
5956.895425	0.098987	0.206190	2004.349487
5956.896332	0.099609	0.206190	2094.695312
5957.902837	0.632036	0.212889	302.113251
5957.903733	0.254901	0.212889	530.504639
5957.904669	0.248734	0.212889	763.319763
5957.905605	0.429346	0.212889	1165.187378
5957.906505	0.099987	0.212889	1255.175293
5957.907392	0.101342	0.212889	1345.065308
5957.908344	0.099836	0.212889	1440.109619
5957.909245	0.099913	0.212889	1530.131592
5957.910151	0.100562	0.212889	1621.240356
5957.911054	0.100184	0.212889	1711.706787
5957.911984	0.099064	0.212889	1803.836060
5957.912891	0.100060	0.212889	1894.590332
5957.913780	0.100613	0.212889	1984.035156
5957.914716	0.099089	0.212889	2076.782715
5958.911431	0.705018	0.196699	308.093018
5958.912383	0.254374	0.196699	550.256836
5958.913310	0.248459	0.196699	780.578735
5958.914237	0.431052	0.196699	1180.164185
5958.915127	0.100151	0.196699	1269.298950
5958.916076	0.100638	0.196699	1364.804810
5958.916977	0.100496	0.196699	1455.351318
5958.917892	0.101367	0.196699	1548.102295
5958.918784	0.100730	0.196699	1637.953491
5958.919744	0.101624	0.196699	1735.512085
5958.920660	0.101536	0.196699	1828.518799
5958.921562	0.100781	0.196699	1919.423462
5958.922506	0.100503	0.196699	2014.298218
5958.923416	0.100433	0.196699	2105.692627
5959.947775	0.709362	0.212292	349.005890
5959.948689	0.255084	0.212292	582.152832
5959.949591	0.248617	0.212292	806.405273
5959.950490	0.440054	0.212292	1202.013550
5959.951447	0.099130	0.212292	1296.880615
5959.952341	0.100104	0.212292	1386.373413
5959.953246	0.101686	0.212292	1478.399048
5959.954142	0.100737	0.212292	1568.659668
5959.955087	0.099778	0.212292	1662.949707
5959.956001	0.100898	0.212292	1755.170898
5959.956895	0.100371	0.212292	1844.902710
5959.957820	0.099716	0.212292	1937.139648
5959.958715	0.099082	0.212292	2025.818115
5959.959616	0.100587	0.212292	2116.447266
5960.938962	0.705458	0.205311	311.812317
5960.939873	0.254751	0.205311	543.890503
5960.940771	0.249785	0.205311	768.197571
5960.941709	0.385463	0.205311	1129.761475
5960.942630	0.099181	0.205311	1221.107056
5960.943523	0.100627	0.205311	1310.967407
5960.944410	0.100917	0.205311	1400.480591
5960.945338	0.099774	0.205311	1493.071045
5960.946239	0.100854	0.205311	1583.940918
5960.947156	0.100712	0.205311	1676.293579
5960.948048	0.100393	0.205311	1765.844238
5960.949003	0.099609	0.205311	1860.971191
5960.949909	0.100042	0.205311	1951.608765
5960.950800	0.099796	0.205311	2040.527100
5961.991166	0.600070	0.211676	289.833618
5961.992079	0.255022	0.211676	522.668701
5961.992978	0.249034	0.211676	746.550659
5961.993883	0.429899	0.211676	1135.609009
5961.994836	0.098895	0.211676	1229.856201
5961.995747	0.100042	0.211676	1320.994019
5961.996643	0.100686	0.211676	1411.208740
5961.997575	0.100162	0.211676	1504.560059
5961.998483	0.099532	0.211676	1594.935547
5961.999389	0.100854	0.211676	1686.309692
5962.000279	0.100609	0.211676	1775.851807
5962.001232	0.099335	0.211676	1870.517822
5962.002141	0.099785	0.211676	1961.222534
5962.003041	0.101429	0.211676	2052.509033
5962.971113	0.664797	0.221272	303.147614
5962.972020	0.254945	0.221272	534.382812
5962.972934	0.249086	0.221272	762.047119
5962.973843	0.395596	0.221272	1121.643555
5962.974807	0.098785	0.221272	1216.872681
5962.975711	0.100642	0.221272	1307.853149
5962.976616	0.100767	0.221272	1399.046875
5962.977545	0.100100	0.221272	1492.039917
5962.978445	0.099595	0.221272	1581.675171
5962.979343	0.101052	0.221272	1672.420044
5962.980230	0.101089	0.221272	1762.085815
5962.981170	0.099265	0.221272	1855.395020
5962.982068	0.099613	0.221272	1944.847534
5962.982974	0.100880	0.221272	2036.244873
5964.023254	0.665233	0.209948	301.350616
5964.024196	0.255066	0.209948	541.622681
5964.025092	0.248950	0.209948	764.682068
5964.026056	0.429705	0.209948	1178.917236
5964.026988	0.100287	0.209948	1272.384644
5964.027879	0.100763	0.209948	1362.164429
5964.028818	0.100433	0.209948	1456.471313
5964.029724	0.100327	0.209948	1547.367676
5964.030643	0.100448	0.209948	1639.679443
5964.031527	0.100920	0.209948	1728.893066
5964.032474	0.101019	0.209948	1824.558350
5964.033396	0.099994	0.209948	1916.752686
5964.034294	0.101049	0.209948	2007.494263
5964.035217	0.100192	0.209948	2099.971191
5965.017064	0.714639	0.220623	334.450897
5965.017996	0.254952	0.220623	572.066528
5965.018911	0.248591	0.220623	799.527588
5965.019817	0.426892	0.220623	1186.291870
5965.020762	0.099056	0.220623	1279.900146
5965.021657	0.100031	0.220623	1369.427490
5965.022566	0.100935	0.220623	1461.177490
5965.023457	0.100573	0.220623	1550.787598
5965.024409	0.099434	0.220623	1645.448364
5965.025316	0.100272	0.220623	1736.395264
5965.026216	0.100565	0.220623	1826.903931
5965.027149	0.099598	0.220623	1919.829224
5965.028053	0.099144	0.220623	2009.455688
5965.028960	0.100822	0.220623	2100.900879
5966.044117	0.714580	0.205267	318.702728
5966.045091	0.255018	0.205267	567.090576
5966.045991	0.248613	0.205267	790.842529
5966.046891	0.430239	0.205267	1178.057861
5966.047807	0.099415	0.205267	1269.122314
5966.048746	0.100891	0.205267	1363.859131
5966.049647	0.100466	0.205267	1454.379272
5966.050536	0.101536	0.205267	1544.644409
5966.051472	0.100071	0.205267	1638.310669
5966.052381	0.100360	0.205267	1729.537964
5966.053309	0.100887	0.205267	1823.161499
5966.054201	0.100159	0.205267	1912.503052
5966.055152	0.099924	0.205267	2007.531128
5966.056040	0.101722	0.205267	2097.860596
5967.062980	0.728119	0.215281	316.003601
5967.063939	0.254952	0.215281	560.502930
5967.064851	0.248760	0.215281	787.371826
5967.065765	0.432850	0.215281	1182.997070
5967.066651	0.099639	0.215281	1271.276978
5967.067601	0.100005	0.215281	1366.281616
5967.068507	0.101027	0.215281	1457.811768
5967.069401	0.100657	0.215281	1547.798950
5967.070332	0.100862	0.215281	1641.701294
5967.071243	0.099661	0.215281	1732.492187
5967.072142	0.100708	0.215281	1823.028687
5967.073029	0.100437	0.215281	1912.116333
5967.073965	0.099086	0.215281	2004.860596
5967.074873	0.099254	0.215281	2094.983398
5968.068586	0.659242	0.213231	304.569794
5968.069487	0.254762	0.213231	534.110352
5968.070383	0.249119	0.213231	757.320679
5968.071339	0.435421	0.213231	1173.583252
5968.072251	0.100181	0.213231	1264.947998
5968.073177	0.101294	0.213231	1358.746216
5968.074068	0.101459	0.213231	1449.145996
5968.075028	0.100499	0.213231	1545.625244
5968.075929	0.100323	0.213231	1636.016724
5968.076823	0.101122	0.213231	1726.419678
5968.077760	0.099781	0.213231	1819.914917
5968.078669	0.100298	0.213231	1911.085693
5968.079564	0.100371	0.213231	2000.917847
5968.080454	0.100111	0.213231	2090.016602
5969.102291	0.692179	0.223882	306.635254
5969.103186	0.254535	0.223882	534.444031
5969.104140	0.248807	0.223882	771.806274
5969.105062	0.427101	0.223882	1165.593262
5969.105951	0.099884	0.223882	1254.390137
5969.106893	0.100009	0.223882	1348.598145
5969.107796	0.099789	0.223882	1438.707397
5969.108702	0.101356	0.223882	1530.536133
5969.109592	0.101356	0.223882	1620.743164
5969.110533	0.099254	0.223882	1714.141357
5969.111433	0.099551	0.223882	1803.737061
5969.112336	0.101023	0.223882	1894.960815
5969.113223	0.099554	0.223882	1983.265625
5969.114177	0.098990	0.223882	2077.702637
5970.109895	0.719619	0.225501	314.473541
5970.110864	0.255146	0.225501	561.710449
5970.111790	0.248525	0.225501	791.844971
5970.112699	0.430708	0.225501	1183.358521
5970.113603	0.099536	0.225501	1273.339233
5970.114546	0.099932	0.225501	1367.574707
5970.115450	0.101052	0.225501	1458.925903
5970.116341	0.100591	0.225501	1548.552368
5970.117288	0.099979	0.225501	1643.232666
5970.118193	0.100291	0.225501	1733.995605
5970.119086	0.100653	0.225501	1823.878784
5970.119976	0.100389	0.225501	1913.225342
5970.120916	0.099185	0.225501	2006.458862
5970.121815	0.100565	0.225501	2096.866943
5971.125712	0.705161	0.210931	306.745117
5971.126665	0.254799	0.210931	549.568176
5971.127580	0.248851	0.210931	777.267151
5971.128490	0.430518	0.210931	1169.038086
5971.129381	0.099562	0.210931	1257.747681
5971.130322	0.099877	0.210931	1351.731689
5971.131230	0.100565	0.210931	1443.044922
5971.132131	0.100902	0.210931	1533.957764
5971.133021	0.100419	0.210931	1623.330444
5971.133962	0.099606	0.210931	1717.059448
5971.134872	0.100452	0.210931	1808.470459
5971.135765	0.100605	0.210931	1898.311157
5971.136711	0.099639	0.210931	1992.569336
5971.137610	0.099243	0.210931	2081.789062
5972.157440	0.717817	0.218456	354.601776
5972.158361	0.255187	0.218456	589.628784
5972.159291	0.248258	0.218456	820.508789
5972.160203	0.404996	0.218456	1189.865479
5972.161156	0.099584	0.218456	1284.768799
5972.162061	0.100452	0.218456	1375.677490
5972.162955	0.101060	0.218456	1466.024780
5972.163869	0.100316	0.218456	1557.713745
5972.164797	0.100221	0.218456	1650.718750
5972.165693	0.100217	0.218456	1740.513428
5972.166585	0.101320	0.218456	1830.890503
5972.167518	0.099672	0.218456	1923.884155
5972.168422	0.100291	0.218456	2014.546753
5972.169344	0.100367	0.218456	2107.085449
5973.146063	0.719912	0.197569	318.921051
5973.147045	0.255293	0.197569	569.618774
5973.147975	0.248423	0.197569	800.652039
5973.148879	0.426387	0.197569	1186.105591
5973.149818	0.099664	0.197569	1279.690430
5973.150722	0.099771	0.197569	1369.882935
5973.151624	0.101708	0.197569	1461.623291
5973.152514	0.101210	0.197569	1551.699951
5973.153468	0.099595	0.197569	1646.713379
5973.154369	0.099745	0.197569	1736.583496
5973.155274	0.100155	0.197569	1827.223755
5973.156167	0.100045	0.197569	1916.564087
5973.157100	0.099126	0.197569	2009.048584
5973.158009	0.100272	0.197569	2100.196045
5974.198236	0.714525	0.219801	319.392761
5974.199133	0.254498	0.219801	547.677734
5974.200064	0.249122	0.219801	779.610596
5974.200991	0.425383	0.219801	1173.940918
5974.201890	0.100283	0.219801	1264.095459
5974.202779	0.101448	0.219801	1354.282471
5974.203728	0.099917	0.219801	1449.103760
5974.204633	0.100675	0.219801	1540.214722
5974.205527	0.101276	0.219801	1630.755127
5974.206413	0.099723	0.219801	1719.109619
5974.207353	0.099214	0.219801	1812.370605
5974.208264	0.099987	0.219801	1903.458374
5974.209157	0.100770	0.219801	1993.446167
5974.210085	0.099562	0.219801	2085.839600
5975.181773	0.714247	0.214383	312.840118
5975.182690	0.254169	0.214383	545.912842
5975.183634	0.248485	0.214383	780.482788
5975.184560	0.431576	0.214383	1180.122070
5975.185451	0.099631	0.214383	1268.893555
5975.186380	0.099902	0.214383	1361.702881
5975.187282	0.099789	0.214383	1451.712402
5975.188184	0.101781	0.214383	1543.518921
5975.189076	0.100510	0.214383	1633.174072
5975.190025	0.099298	0.214383	1727.407959
5975.190936	0.099335	0.214383	1817.901855
5975.191836	0.099873	0.214383	1907.787598
5975.192754	0.099719	0.214383	1999.329834
5975.193664	0.098789	0.214383	2089.227783
5976.227293	0.673488	0.215938	303.069397
5976.228197	0.254652	0.215938	533.274902
5976.229092	0.249269	0.215938	756.370483
5976.230069	0.425698	0.215938	1172.277710
5976.230976	0.099701	0.215938	1262.706421
5976.231870	0.101169	0.215938	1353.151855
5976.232762	0.100913	0.215938	1443.166382
5976.233696	0.099789	0.215938	1536.369141
5976.234599	0.101572	0.215938	1628.088867
5976.235488	0.101147	0.215938	1718.008911
5976.236407	0.099547	0.215938	1809.492676
5976.237318	0.100364	0.215938	1900.924072
5976.238219	0.100975	0.215938	1991.902832
5976.239110	0.100115	0.215938	2081.104980
5977.228238	0.713899	0.218621	313.401611
5977.229164	0.254740	0.218621	549.290833
5977.230095	0.249305	0.218621	781.394165
5977.231013	0.429265	0.218621	1175.459595
5977.231910	0.101312	0.218621	1266.336670
5977.232844	0.100027	0.218621	1359.761719
5977.233761	0.100031	0.218621	1451.489746
5977.234666	0.101243	0.218621	1543.114380
5977.235553	0.100785	0.218621	1632.510620
5977.236502	0.099470	0.218621	1726.907837
5977.237410	0.099756	0.218621	1817.486206
5977.238304	0.100206	0.218621	1907.070679
5977.239234	0.099708	0.218621	1999.799316
5977.240142	0.098939	0.218621	2089.636230
5978.250191	0.714642	0.204598	314.442627
5978.251091	0.254806	0.204598	543.767944
5978.251989	0.249767	0.204598	768.058594
5978.252946	0.430195	0.204598	1179.755493
5978.253846	0.099331	0.204598	1269.153442
5978.254751	0.101016	0.204598	1360.572632
5978.255643	0.100551	0.204598	1450.263672
5978.256587	0.099683	0.204598	1544.364014
5978.257492	0.100448	0.204598	1635.269409
5978.258384	0.100928	0.204598	1725.296997
5978.259321	0.099569	0.204598	1818.593262
5978.260229	0.099148	0.204598	1908.619629
5978.261131	0.100887	0.204598	1999.620117
5978.262024	0.101536	0.204598	2090.291504
5979.271116	0.714163	0.208417	315.659851
5979.272015	0.254363	0.208417	544.332031
5979.272982	0.248654	0.208417	784.780029
5979.273899	0.428745	0.208417	1177.939331
5979.274794	0.100115	0.208417	1267.541992
5979.275737	0.100551	0.208417	1362.361206
5979.276631	0.099928	0.208417	1451.696777
5979.277535	0.100986	0.208417	1542.988403
5979.278433	0.100261	0.208417	1633.022949
5979.279361	0.099540	0.208417	1725.395874
5979.280265	0.099606	0.208417	1815.439453
5979.281174	0.102231	0.208417	1908.367798
5979.282062	0.100375	0.208417	1997.500610
5979.283002	0.099379	0.208417	2090.916504
5980.276191	0.687407	0.198681	308.645844
5980.277115	0.254758	0.198681	544.042480
5980.278015	0.249247	0.198681	768.364624
5980.278963	0.362772	0.198681	1112.272705
5980.279871	0.099020	0.198681	1202.182617
5980.280776	0.100818	0.198681	1293.422729
5980.281673	0.101448	0.198681	1384.421387
5980.282610	0.099869	0.198681	1477.999023
5980.283514	0.099913	0.198681	1568.320679
5980.284420	0.100737	0.198681	1659.588623
5980.285312	0.100089	0.198681	1748.868164
5980.286251	0.099272	0.198681	1842.084961
5980.287159	0.100184	0.198681	1933.052368
5980.288056	0.100342	0.198681	2023.058960
5981.308925	0.715770	0.213239	348.580109
5981.309846	0.255077	0.213239	583.505981
5981.310756	0.248500	0.213239	809.640747
5981.311660	0.422688	0.213239	1191.750732
5981.312614	0.099188	0.213239	1286.376343
5981.313506	0.100397	0.213239	1375.930176
5981.314405	0.101865	0.213239	1467.507080
5981.315292	0.101012	0.213239	1557.104736
5981.316236	0.099646	0.213239	1651.170532
5981.317138	0.100825	0.213239	1742.114868
5981.318035	0.100803	0.213239	1832.535400
5981.318970	0.099756	0.213239	1925.807129
5981.319872	0.099089	0.213239	2015.185791
5981.320773	0.100298	0.213239	2105.554199
5982.310372	0.673165	0.217207	310.329193
5982.311268	0.254454	0.217207	538.320312
5982.312214	0.248800	0.217207	773.685181
5982.313137	0.435872	0.217207	1175.994629
5982.314038	0.100928	0.217207	1266.930542
5982.314927	0.100591	0.217207	1356.355835
5982.315884	0.099873	0.217207	1451.934326
5982.316781	0.100243	0.217207	1541.852173
5982.317690	0.101074	0.217207	1633.728638
5982.318578	0.099781	0.217207	1722.334595
5982.319521	0.099181	0.217207	1815.862183
5982.320421	0.099756	0.217207	1905.642456
5982.321317	0.100305	0.217207	1995.515869
5982.322251	0.099133	0.217207	2088.106445
5983.343570	0.705278	0.219088	315.259399
5983.344466	0.254678	0.219088	543.450623
5983.345420	0.249115	0.219088	781.106323
5983.346346	0.427361	0.219088	1176.842529
5983.347241	0.100247	0.219088	1266.563232
5983.348129	0.100741	0.219088	1356.021240
5983.349076	0.099891	0.219088	1450.618408
5983.349977	0.100298	0.219088	1540.986816
5983.350880	0.100690	0.219088	1631.909668
5983.351767	0.099723	0.219088	1720.363892
5983.352706	0.099280	0.219088	1813.587646
5983.353614	0.100188	0.219088	1904.558350
5983.354513	0.100884	0.219088	1995.252930
5983.355447	0.099283	0.219088	2087.983643
5984.350667	0.718781	0.228841	314.107086
5984.351564	0.254139	0.228841	542.070129
5984.352534	0.248053	0.228841	782.681519
5984.353460	0.435048	0.228841	1185.535645
5984.354357	0.100316	0.228841	1275.519287
5984.355286	0.099939	0.228841	1368.362549
5984.356182	0.099767	0.228841	1457.753662
5984.357078	0.101525	0.228841	1548.719727
5984.357963	0.100719	0.228841	1637.856079
5984.358903	0.099452	0.228841	1731.340820
5984.359813	0.099642	0.228841	1822.015381
5984.360718	0.101118	0.228841	1913.527344
5984.361607	0.100159	0.228841	2002.568359
5984.362557	0.099386	0.228841	2096.985107
5985.373674	0.686968	0.211660	311.196381
5985.374575	0.254458	0.211660	540.463013
5985.375472	0.249207	0.211660	764.001282
5985.376447	0.435604	0.211660	1188.715454
5985.377352	0.100159	0.211660	1279.359131
5985.378262	0.100745	0.211660	1371.036743
5985.379166	0.100635	0.211660	1462.010620
5985.380117	0.100470	0.211660	1557.557617
5985.381022	0.101257	0.211660	1649.195557
5985.381909	0.100228	0.211660	1738.098022
5985.382843	0.099858	0.211660	1831.365723
5985.383748	0.100518	0.211660	1922.334106
5985.384672	0.100023	0.211660	2014.755493
5985.385566	0.100287	0.211660	2104.411865
5986.389462	0.686781	0.222166	307.677917
5986.390367	0.254678	0.222166	538.161255
5986.391261	0.249397	0.222166	761.122131
5986.392231	0.426032	0.222166	1174.372681
5986.393140	0.099159	0.222166	1264.508179
5986.394038	0.101536	0.222166	1355.687134
5986.394951	0.101107	0.222166	1447.998047
5986.395858	0.099866	0.222166	1538.576294
5986.396766	0.100895	0.222166	1630.188721
5986.397655	0.100408	0.222166	1719.451172
5986.398598	0.099456	0.222166	1813.237793
5986.399498	0.099379	0.222166	1902.678589
5986.400399	0.100192	0.222166	1992.951294
5986.401288	0.099705	0.222166	2081.588623
5987.405262	0.714155	0.202580	315.656616
5987.406231	0.254703	0.202580	562.464172
5987.407134	0.248251	0.202580	786.634583
5987.408065	0.433986	0.202580	1190.675171
5987.408952	0.099587	0.202580	1279.009155
5987.409906	0.100331	0.202580	1374.724731
5987.410800	0.102133	0.202580	1466.031250
5987.411688	0.100697	0.202580	1555.450195
5987.412637	0.099796	0.202580	1650.156738
5987.413542	0.101261	0.202580	1741.797974
5987.414432	0.101023	0.202580	1831.708374
5987.415365	0.100005	0.202580	1925.012939
5987.416264	0.099558	0.202580	2014.515625
5987.417168	0.100884	0.202580	2105.714600
5988.426196	0.705176	0.215829	314.508392
5988.427093	0.254491	0.215829	542.786804
5988.428012	0.248881	0.215829	771.508057
5988.428965	0.435743	0.215829	1186.771484
5988.429872	0.100144	0.215829	1277.602173
5988.430768	0.101715	0.215829	1368.738892
5988.431697	0.099965	0.215829	1461.605957
5988.432604	0.099906	0.215829	1552.220703
5988.433511	0.101265	0.215829	1644.067749
5988.434399	0.100723	0.215829	1733.509521
5988.435348	0.099401	0.215829	1827.840698
5988.436255	0.099232	0.215829	1917.844238
5988.437149	0.099950	0.215829	2007.199463
5988.438071	0.099716	0.215829	2099.137207
5989.438930	0.700591	0.200022	311.762939
5989.439845	0.254667	0.200022	544.783020
5989.440760	0.249269	0.200022	772.863953
5989.441723	0.436630	0.200022	1193.338257
5989.442624	0.099034	0.200022	1282.568237
5989.443524	0.100565	0.200022	1373.076904
5989.444413	0.100844	0.200022	1462.726807
5989.445360	0.099763	0.200022	1557.202515
5989.446254	0.100320	0.200022	1646.888428
5989.447151	0.100690	0.200022	1737.207031
5989.448089	0.100093	0.200022	1831.093994
5989.448991	0.099298	0.200022	1920.660889
5989.449890	0.100569	0.200022	2011.072266
5989.450781	0.100602	0.200022	2100.708496
5990.460876	0.719484	0.213070	318.011780
5990.461854	0.255293	0.213070	567.688293
5990.462770	0.248522	0.213070	795.334229
5990.463673	0.431294	0.213070	1184.792725
5990.464609	0.099503	0.213070	1277.927734
5990.465519	0.099891	0.213070	1368.828857
5990.466433	0.101587	0.213070	1461.679321
5990.467335	0.102063	0.213070	1553.740112
5990.468268	0.099573	0.213070	1646.641479
5990.469182	0.099657	0.213070	1737.728027
5990.470085	0.100646	0.213070	1828.611084
5990.470977	0.099965	0.213070	1917.779541
5990.471934	0.099086	0.213070	2012.604492
5990.472847	0.099650	0.213070	2103.584717
5991.474124	0.728481	0.197247	320.531860
5991.475098	0.255381	0.197247	569.272827
5991.476010	0.248745	0.197247	796.128357
5991.476913	0.435674	0.197247	1189.541870
5991.477853	0.099697	0.197247	1283.257324
5991.478757	0.099957	0.197247	1373.618652
5991.479668	0.101305	0.197247	1465.907471
5991.480566	0.100961	0.197247	1556.570190
5991.481497	0.099705	0.197247	1649.395142
5991.482401	0.100012	0.197247	1739.806152
5991.483300	0.100631	0.197247	1830.273560
5991.484191	0.100375	0.197247	1919.707520
5991.485122	0.099122	0.197247	2011.990356
5991.486022	0.099756	0.197247	2101.770508
5992.494028	0.713760	0.211044	311.913025
5992.494924	0.254044	0.211044	539.536621
5992.495898	0.248335	0.211044	781.414856
5992.496812	0.428624	0.211044	1173.177490
5992.497705	0.100649	0.211044	1263.057373
5992.498642	0.100254	0.211044	1356.995239
5992.499554	0.100569	0.211044	1448.713989
5992.500452	0.101012	0.211044	1539.422729
5992.501340	0.101104	0.211044	1629.202637
5992.502280	0.099763	0.211044	1722.979980
5992.503181	0.100140	0.211044	1813.206421
5992.504094	0.100518	0.211044	1904.979004
5992.504995	0.099825	0.211044	1994.921753
5992.505960	0.099928	0.211044	2091.352295
5993.511895	0.677805	0.194818	300.945496
5993.512823	0.254414	0.194818	537.041748
5993.513723	0.248771	0.194818	760.935425
5993.514686	0.430067	0.194818	1175.090088
5993.515587	0.099053	0.194818	1264.336548
5993.516482	0.100536	0.194818	1354.316162
5993.517371	0.100320	0.194818	1443.500488
5993.518324	0.099781	0.194818	1538.592285
5993.519232	0.100323	0.194818	1629.686035
5993.520133	0.100928	0.194818	1720.621948
5993.521063	0.099558	0.194818	1813.210937
5993.521960	0.099221	0.194818	1902.212402
5993.522856	0.100536	0.194818	1992.292603
5993.523743	0.101016	0.194818	2081.893555
5994.523593	0.717686	0.205235	310.757843
5994.524525	0.254795	0.205235	548.226685
5994.525462	0.249177	0.205235	781.705750
5994.526381	0.425544	0.205235	1172.781128
5994.527270	0.100463	0.205235	1262.092407
5994.528212	0.099880	0.205235	1356.179687
5994.529120	0.101239	0.205235	1448.104736
5994.530019	0.100734	0.205235	1538.664307
5994.530908	0.100353	0.205235	1627.877930
5994.531853	0.099302	0.205235	1721.718140
5994.532743	0.100624	0.205235	1811.273315
5994.533633	0.100975	0.205235	1901.141357
5994.534541	0.099785	0.205235	1991.746338
5994.535473	0.099756	0.205235	2084.718750
5995.551230	0.608247	0.192751	291.350372
5995.552150	0.254967	0.192751	525.920044
5995.553053	0.248628	0.192751	750.431030
5995.553983	0.379783	0.192751	1103.628906
5995.554917	0.099027	0.192751	1196.120239
5995.555829	0.101243	0.192751	1288.453613
5995.556725	0.100898	0.192751	1378.858643
5995.557658	0.099716	0.192751	1471.893311
5995.558568	0.099807	0.192751	1562.717773
5995.559473	0.101257	0.192751	1654.355713
5995.560363	0.100840	0.192751	1744.103149
5995.561314	0.099404	0.192751	1838.636597
5995.562218	0.100265	0.192751	1929.276123
5995.563106	0.100807	0.192751	2018.792603
5996.555214	0.692216	0.203535	307.343719
5996.556119	0.254326	0.203535	537.508911
5996.557018	0.249229	0.203535	761.565308
5996.558001	0.428086	0.203535	1182.373779
5996.558906	0.099620	0.203535	1272.530151
5996.559813	0.101356	0.203535	1364.460205
5996.560746	0.100243	0.203535	1457.986816
5996.561654	0.099906	0.203535	1548.701416
5996.562549	0.100697	0.203535	1638.825195
5996.563442	0.101085	0.203535	1729.094238
5996.564369	0.099265	0.203535	1821.113037
5996.565273	0.099866	0.203535	1911.391602
5996.566181	0.100521	0.203535	2002.664917
5996.567074	0.099741	0.203535	2091.733887
5997.588966	0.667317	0.202032	307.633087
5997.589864	0.254886	0.202032	536.521118
5997.590813	0.248947	0.202032	772.771362
5997.591725	0.429939	0.202032	1164.875732
5997.592618	0.100562	0.202032	1254.677124
5997.593514	0.101199	0.202032	1345.351196
5997.594471	0.100042	0.202032	1441.090942
5997.595383	0.099950	0.202032	1532.245239
5997.596288	0.101382	0.202032	1623.995850
5997.597219	0.100236	0.202032	1717.315186
5997.598121	0.099313	0.202032	1806.895264
5997.599027	0.100488	0.202032	1897.937622
5997.599916	0.100243	0.202032	1987.053589
5997.600855	0.099126	0.202032	2080.132812
5998.589393	0.700532	0.206850	309.635223
5998.590285	0.254681	0.206850	536.811035
5998.591258	0.248683	0.206850	778.779419
5998.592179	0.435238	0.206850	1179.633667
5998.593069	0.100107	0.206850	1268.729248
5998.594013	0.100166	0.206850	1363.286011
5998.594909	0.099998	0.206850	1452.883789
5998.595808	0.101689	0.206850	1544.302612
5998.596705	0.100686	0.206850	1634.618042
5998.597648	0.099437	0.206850	1728.387329
5998.598549	0.100342	0.206850	1818.795288
5998.599446	0.100660	0.206850	1909.087646
5998.600360	0.100133	0.206850	2000.609253
5998.601278	0.099119	0.206850	2091.600098
5999.621593	0.704729	0.215197	315.013885
5999.622497	0.254593	0.215197	545.166382
5999.623389	0.249229	0.215197	767.478210
5999.624357	0.424277	0.215197	1178.178711
5999.625273	0.099683	0.215197	1269.488037
5999.626170	0.100983	0.215197	1360.069458
5999.627102	0.100529	0.215197	1453.762085
5999.628013	0.099855	0.215197	1544.729736
5999.628915	0.101184	0.215197	1635.997803
5999.629803	0.100280	0.215197	1725.046021
5999.630739	0.099141	0.215197	1817.841675
5999.631646	0.099459	0.215197	1908.051147
5999.632541	0.100404	0.215197	1997.912720
5999.633426	0.099752	0.215197	2086.193359
6000.629703	0.722520	0.207164	317.186066
6000.630677	0.254839	0.207164	565.399170
6000.631600	0.248350	0.207164	794.625854
6000.632505	0.429434	0.207164	1183.263184
6000.633395	0.099437	0.207164	1271.762329
6000.634351	0.099862	0.207164	1367.230469
6000.635263	0.100887	0.207164	1459.239868
6000.636167	0.101122	0.207164	1550.654053
6000.637101	0.099613	0.207164	1643.692627
6000.638009	0.099756	0.207164	1734.270996
6000.638909	0.100968	0.207164	1825.142212
6000.639797	0.100653	0.207164	1914.522095
6000.640743	0.099324	0.207164	2008.482300
6000.641642	0.099774	0.207164	2098.179199
6001.647576	0.686642	0.215894	306.242249
6001.648497	0.254879	0.215894	540.985962
6001.649408	0.249214	0.215894	768.019775
6001.650359	0.435699	0.215894	1182.369995
6001.651260	0.098851	0.215894	1271.435059
6001.652159	0.100898	0.215894	1362.142700
6001.653050	0.100419	0.215894	1451.615723
6001.653992	0.099869	0.215894	1545.692627
6001.654883	0.100012	0.215894	1634.803467
6001.655787	0.100649	0.215894	1725.790527
6001.656696	0.099983	0.215894	1816.675049
6001.657636	0.099192	0.215894	1909.915405
6001.658543	0.100247	0.215894	2000.839111
6001.659442	0.100148	0.215894	2090.871826
6002.676173	0.720461	0.198637	314.841644
6002.677119	0.254634	0.198637	555.725220
6002.678037	0.248624	0.198637	783.962280
6002.678951	0.433707	0.198637	1180.370728
6002.679842	0.099814	0.198637	1269.305420
6002.680790	0.099851	0.198637	1363.964233
6002.681704	0.100386	0.198637	1455.716797
6002.682604	0.100939	0.198637	1546.561646
6002.683545	0.099972	0.198637	1640.635254
6002.684443	0.099463	0.198637	1729.952881
6002.685343	0.100052	0.198637	1820.000122
6002.686232	0.100712	0.198637	1909.532837
6002.687171	0.099342	0.198637	2002.815063
6002.688071	0.100067	0.198637	2092.875488
6003.671511	0.705586	0.207684	318.219238
6003.672406	0.254568	0.207684	546.057495
6003.673351	0.248884	0.207684	781.253174
6003.674279	0.434183	0.207684	1184.175293
6003.675181	0.099862	0.207684	1274.250854
6003.676068	0.100836	0.207684	1363.692505
6003.677008	0.099888	0.207684	1457.586914
6003.677918	0.100074	0.207684	1548.654663
6003.678825	0.100192	0.207684	1639.528442
6003.679713	0.100382	0.207684	1728.667725
6003.680652	0.099243	0.207684	1821.857056
6003.681565	0.099481	0.207684	1912.683350
6003.682453	0.100664	0.207684	2002.072998
6003.683377	0.099445	0.207684	2093.959717
6004.720146	0.598440	0.206387	306.999695
6004.721061	0.255212	0.206387	540.519043
6004.721967	0.248390	0.206387	765.560303
6004.722866	0.429097	0.206387	1151.318237
6004.723803	0.099133	0.206387	1244.206177
6004.724714	0.100701	0.206387	1335.944458
6004.725611	0.101605	0.206387	1427.084351
6004.726535	0.100137	0.206387	1519.610718
6004.727440	0.099650	0.206387	1609.793701
6004.728350	0.100928	0.206387	1701.637939
6004.729246	0.101089	0.206387	1792.213623
6004.730187	0.099254	0.206387	1885.611816
6004.731088	0.099426	0.206387	1975.194824
6004.731987	0.100488	0.206387	2065.533691
6005.700568	0.686451	0.209622	304.097992
6005.701493	0.254938	0.209622	539.915405
6005.702400	0.249265	0.209622	765.998901
6005.703348	0.432960	0.209622	1176.445190
6005.704246	0.099152	0.209622	1265.483398
6005.705138	0.101188	0.209622	1355.742920
6005.706026	0.101228	0.209622	1445.633423
6005.706973	0.099957	0.209622	1540.292969
6005.707867	0.100320	0.209622	1629.978882
6005.708766	0.100939	0.209622	1720.722778
6005.709698	0.100280	0.209622	1814.183350
6005.710614	0.099283	0.209622	1905.126953
6005.711520	0.101287	0.209622	1996.892578
6005.712418	0.100074	0.209622	2086.759521
6006.754266	0.686660	0.217594	311.743683
6006.755167	0.254147	0.217594	540.729858
6006.756064	0.248657	0.217594	763.775391
6006.757044	0.432499	0.217594	1187.624268
6006.757948	0.099932	0.217594	1277.962402
6006.758844	0.101158	0.217594	1368.600342
6006.759775	0.100096	0.217594	1461.790161
6006.760675	0.099620	0.217594	1551.448486
6006.761574	0.101173	0.217594	1642.403076
6006.762464	0.100715	0.217594	1732.039673
6006.763412	0.099166	0.217594	1826.049316
6006.764307	0.099408	0.217594	1915.019409
6006.765210	0.100686	0.217594	2005.938843
6006.766101	0.099591	0.217594	2094.674561
6007.740376	0.700558	0.200058	308.946014
6007.741292	0.254674	0.200058	542.227478
6007.742202	0.249166	0.200058	768.968750
6007.743148	0.438472	0.200058	1183.762939
6007.744051	0.098979	0.200058	1273.141479
6007.744956	0.101067	0.200058	1364.607056
6007.745840	0.101320	0.200058	1454.173584
6007.746793	0.099591	0.200058	1549.083862
6007.747700	0.100455	0.200058	1640.196777
6007.748591	0.100382	0.200058	1729.637207
6007.749520	0.099686	0.200058	1822.245728
6007.750423	0.099247	0.200058	1911.865601
6007.751334	0.100649	0.200058	2003.557251
6007.752233	0.100503	0.200058	2093.909424
6008.777685	0.700756	0.217682	313.237762
6008.778587	0.254769	0.217682	543.039673
6008.779526	0.249188	0.217682	777.027466
6008.780456	0.426108	0.217682	1173.308228
6008.781356	0.100078	0.217682	1263.378540
6008.782246	0.100386	0.217682	1352.721802
6008.783197	0.099796	0.217682	1447.627930
6008.784100	0.099950	0.217682	1537.882690
6008.785001	0.100924	0.217682	1628.815308
6008.785887	0.100276	0.217682	1717.659790
6008.786816	0.099291	0.217682	1809.900879
6008.787723	0.100920	0.217682	1901.435669
6008.788620	0.101107	0.217682	1992.128784
6008.789549	0.099470	0.217682	2084.536621
6009.789404	0.715096	0.197472	321.078278
6009.790300	0.254714	0.197472	549.302307
6009.791261	0.248932	0.197472	788.525879
6009.792202	0.397086	0.197472	1162.183960
6009.793088	0.100001	0.197472	1250.785034
6009.794015	0.101027	0.197472	1344.436646
6009.794933	0.100664	0.197472	1436.846313
6009.795859	0.101125	0.197472	1530.488525
6009.796753	0.100745	0.197472	1620.554199
6009.797692	0.099818	0.197472	1714.283447
6009.798611	0.100583	0.197472	1806.719727
6009.799531	0.100503	0.197472	1899.182373
6009.800419	0.100873	0.197472	1988.757446
6009.801370	0.100422	0.197472	2084.259033
6010.801109	0.703993	0.214073	315.388824
6010.802004	0.254377	0.214073	543.056641
6010.802958	0.248756	0.214073	780.369995
6010.803893	0.431034	0.214073	1183.386719
6010.804802	0.100792	0.214073	1275.006836
6010.805688	0.100876	0.214073	1364.383423
6010.806645	0.100034	0.214073	1460.116089
6010.807560	0.100847	0.214073	1552.391235
6010.808450	0.101576	0.214073	1642.793823
6010.809373	0.099976	0.214073	1735.071289
6010.810280	0.099214	0.214073	1825.058228
6010.811183	0.100909	0.214073	1916.179443
6010.812070	0.100170	0.214073	2005.029907
6010.813016	0.098983	0.214073	2098.667969
6011.833869	0.716005	0.211809	363.014374
6011.834770	0.255194	0.211809	592.944275
6011.835698	0.248313	0.211809	823.378723
6011.836611	0.413789	0.211809	1201.168213
6011.837565	0.100591	0.211809	1297.131836
6011.838478	0.100865	0.211809	1389.222046
6011.839396	0.100763	0.211809	1481.722412
6011.840289	0.100917	0.211809	1571.841064
6011.841241	0.100686	0.211809	1667.694214
6011.842163	0.100393	0.211809	1760.256592
6011.843052	0.100470	0.211809	1849.574341
6011.844000	0.100137	0.211809	1944.503906
6011.844906	0.099858	0.211809	2034.975586
6011.845822	0.100474	0.211809	2127.009521
6012.832769	0.562863	0.214939	272.425446
6012.833691	0.254740	0.214939	507.295715
6012.834602	0.248064	0.214939	733.281982
6012.835505	0.419506	0.214939	1112.095581
6012.836464	0.099166	0.214939	1207.196045
6012.837374	0.100254	0.214939	1298.427124
6012.838271	0.101429	0.214939	1389.409302
6012.839201	0.100093	0.214939	1482.495605
6012.840102	0.099701	0.214939	1572.326172
6012.841000	0.100785	0.214939	1662.831055
6012.841885	0.100796	0.214939	1752.035400
6012.842820	0.099130	0.214939	1844.721558
6012.843721	0.099781	0.214939	1934.624634
6012.844624	0.100433	0.214939	2025.315918
6013.865930	0.728210	0.219141	316.043335
6013.866869	0.254722	0.219141	555.226990
6013.867793	0.248807	0.219141	785.125000
6013.868728	0.428983	0.219141	1186.224243
6013.869617	0.101305	0.219141	1276.284302
6013.870579	0.101591	0.219141	1374.014404
6013.871486	0.100653	0.219141	1465.306763
6013.872395	0.101060	0.219141	1557.169922
6013.873291	0.100865	0.219141	1647.545410
6013.874225	0.100968	0.219141	1741.849487
6013.875148	0.100851	0.219141	1834.934814
6013.876043	0.100371	0.219141	1924.766968
6013.876971	0.099771	0.219141	2017.354004
6013.877886	0.099796	0.219141	2108.667480
6014.872566	0.631864	0.204469	298.871674
6014.873477	0.254656	0.204469	530.863037
6014.874387	0.248470	0.204469	756.971191
6014.875289	0.424321	0.204469	1139.708984
6014.876246	0.098928	0.204469	1234.383301
6014.877154	0.100631	0.204469	1325.756348
6014.878046	0.101125	0.204469	1415.960327
6014.878978	0.099877	0.204469	1509.045410
6014.879877	0.099375	0.204469	1598.383545
6014.880776	0.101184	0.204469	1689.348022
6014.881664	0.100946	0.204469	1778.988159
6014.882600	0.099309	0.204469	1871.941406
6014.883504	0.099752	0.204469	1962.117432
6014.884410	0.100426	0.204469	2053.103516
6015.890917	0.672997	0.211249	304.867554
6015.891819	0.254487	0.211249	534.415100
6015.892716	0.248917	0.211249	757.693848
6015.893680	0.420015	0.211249	1162.588013
6015.894584	0.100858	0.211249	1253.763794
6015.895503	0.100338	0.211249	1345.974487
6015.896398	0.100796	0.211249	1436.186768
6015.897351	0.101118	0.211249	1532.552368
6015.898270	0.101283	0.211249	1625.631348
6015.899159	0.100822	0.211249	1715.261719
6015.900103	0.100023	0.211249	1809.683594
6015.901024	0.100221	0.211249	1901.987061
6015.901937	0.101063	0.211249	1994.257812
6015.902839	0.100045	0.211249	2084.498535
6016.919024	0.631824	0.201054	291.270721
6016.919934	0.255081	0.201054	523.394043
6016.920848	0.249294	0.201054	751.249146
6016.921746	0.477063	0.201054	1179.651733
6016.922698	0.099507	0.201054	1274.382202
6016.923599	0.101854	0.201054	1366.152832
6016.924490	0.102458	0.201054	1457.443359
6016.925432	0.100005	0.201054	1551.647949
6016.926337	0.099419	0.201054	1641.622070
6016.927232	0.101796	0.201054	1732.729248
6016.928119	0.102048	0.201054	1823.246094
6016.929056	0.099283	0.201054	1916.274658
6016.929962	0.099745	0.201054	2006.643555
6016.930864	0.100825	0.201054	2097.587891
6017.917396	0.700594	0.211209	311.764557
6017.918292	0.254755	0.211209	540.024719
6017.919246	0.249012	0.211209	777.582581
6017.920183	0.430422	0.211209	1180.888306
6017.921087	0.100532	0.211209	1271.769409
6017.921977	0.100909	0.211209	1361.578857
6017.922930	0.099972	0.211209	1456.852051
6017.923834	0.101111	0.211209	1548.256226
6017.924728	0.100338	0.211209	1637.958496
6017.925674	0.100056	0.211209	1732.611572
6017.926576	0.099551	0.211209	1822.406372
6017.927471	0.100067	0.211209	1911.966431
6017.928364	0.099932	0.211209	2001.205322
6017.929292	0.098983	0.211209	2093.061768
6018.961355	0.728518	0.210899	320.547943
6018.962330	0.255289	0.210899	569.455017
6018.963237	0.248903	0.210899	795.209656
6018.964142	0.432253	0.210899	1186.398926
6018.965076	0.099108	0.210899	1278.965454
6018.965986	0.099972	0.210899	1369.939941
6018.966897	0.100745	0.210899	1461.718262
6018.967786	0.102806	0.210899	1553.113159
6018.968720	0.099884	0.210899	1646.404785
6018.969623	0.099928	0.210899	1736.639771
6018.970525	0.100792	0.210899	1827.554321
6018.971416	0.100331	0.210899	1916.949097
6018.972370	0.099481	0.210899	2011.854126
6018.973271	0.099448	0.210899	2101.457031
6019.946961	0.719857	0.218073	318.176849
6019.947855	0.254626	0.218073	545.812866
6019.948811	0.248965	0.218073	783.823242
6019.949743	0.479993	0.218073	1231.176392
6019.950641	0.102473	0.218073	1323.197266
6019.951551	0.101367	0.218073	1415.441406
6019.952479	0.100199	0.218073	1508.426025
6019.953390	0.101891	0.218073	1601.248657
6019.954288	0.102349	0.218073	1693.157715
6019.955220	0.100082	0.218073	1786.433960
6019.956124	0.099617	0.218073	1876.487427
6019.957025	0.102784	0.218073	1969.096191
6019.957911	0.101748	0.218073	2059.244873
6019.958839	0.099075	0.218073	2151.186279
6021.000683	0.721282	0.215273	340.444977
6021.001597	0.255396	0.215273	573.876465
6021.002553	0.248694	0.215273	811.627808
6021.003477	0.398262	0.215273	1179.621582
6021.004391	0.100042	0.215273	1271.059570
6021.005289	0.101140	0.215273	1361.883423
6021.006231	0.100221	0.215273	1456.291504
6021.007136	0.100660	0.215273	1547.389160
6021.008065	0.100862	0.215273	1641.089844
6021.008959	0.100569	0.215273	1730.998413
6021.009909	0.101038	0.215273	1826.984131
6021.010805	0.100173	0.215273	1916.739502
6021.011697	0.099836	0.215273	2005.793579
6021.012634	0.099254	0.215273	2098.794678
6021.979115	0.604116	0.222343	283.934601
6021.980027	0.255264	0.222343	516.735046
6021.980921	0.249404	0.222343	739.702454
6021.981890	0.424523	0.222343	1151.064941
6021.982788	0.099705	0.222343	1240.599609
6021.983691	0.101180	0.222343	1331.965576
6021.984584	0.101144	0.222343	1422.286987
6021.985532	0.100009	0.222343	1517.095093
6021.986436	0.101393	0.222343	1608.754150
6021.987332	0.101012	0.222343	1699.260864
6021.988264	0.099712	0.222343	1792.192383
6021.989173	0.099276	0.222343	1882.434326
6021.990075	0.100602	0.222343	1973.177124
6021.990965	0.099961	0.222343	2062.142334
6023.036390	0.673762	0.212083	305.888031
6023.037292	0.254908	0.212083	535.815430
6023.038185	0.249203	0.212083	758.353577
6023.039149	0.482611	0.212083	1223.590576
6023.040044	0.100994	0.212083	1313.979858
6023.040929	0.101993	0.212083	1404.244019
6023.041867	0.100386	0.212083	1498.405884
6023.042784	0.100906	0.212083	1590.936523
6023.043686	0.101635	0.212083	1682.610840
6023.044576	0.101133	0.212083	1772.619019
6023.045520	0.099302	0.212083	1866.359863
6023.046424	0.100763	0.212083	1957.449585
6023.047322	0.101770	0.212083	2048.839111
6023.048209	0.100668	0.212083	2138.131348
6024.014287	0.700814	0.222641	311.862305
6024.015251	0.254868	0.222641	557.555176
6024.016167	0.248419	0.222641	785.107178
6024.017073	0.430851	0.222641	1175.458008
6024.018023	0.099265	0.222641	1269.759888
6024.018925	0.100042	0.222641	1359.997314
6024.019821	0.101224	0.222641	1450.694336
6024.020710	0.101019	0.222641	1540.500488
6024.021638	0.099620	0.222641	1632.948242
6024.022534	0.099434	0.222641	1722.040771
6024.023445	0.101111	0.222641	1814.152710
6024.024335	0.099789	0.222641	1902.964722
6024.025283	0.099108	0.222641	1996.918823
6024.026192	0.099906	0.222641	2087.733398
6025.070033	0.688466	0.205311	306.367157
6025.070931	0.254542	0.205311	534.946045
6025.071880	0.248884	0.205311	771.137207
6025.072800	0.434202	0.205311	1170.602783
6025.073697	0.101202	0.205311	1261.381348
6025.074582	0.100668	0.205311	1350.472290
6025.075541	0.099650	0.205311	1446.036377
6025.076434	0.100935	0.205311	1536.171387
6025.077325	0.100627	0.205311	1625.830444
6025.078260	0.100397	0.205311	1719.701416
6025.079166	0.099869	0.205311	1810.183105
6025.080069	0.100686	0.205311	1901.102539
6025.080956	0.100671	0.205311	1990.398071
6025.081906	0.099269	0.205311	2084.703369
6026.050510	0.714163	0.225397	315.659851
6026.051475	0.254755	0.225397	561.498047
6026.052395	0.248170	0.225397	789.814575
6026.053310	0.432506	0.225397	1185.557617
6026.054201	0.099543	0.225397	1274.250854
6026.055160	0.099910	0.225397	1370.064209
6026.056065	0.100895	0.225397	1461.374023
6026.056958	0.102096	0.225397	1552.545654
6026.057899	0.099686	0.225397	1646.350464
6026.058805	0.099393	0.225397	1736.400757
6026.059704	0.100829	0.225397	1827.045898
6026.060591	0.100510	0.225397	1916.198486
6026.061538	0.098914	0.225397	2009.869629
6026.062439	0.099716	0.225397	2099.713379
6027.104732	0.686334	0.202282	304.732391
6027.105648	0.254399	0.202282	537.762268
6027.106561	0.248855	0.202282	764.966858
6027.107487	0.354152	0.202282	1092.911255
6027.108416	0.098884	0.202282	1184.774780
6027.109323	0.100265	0.202282	1275.715088
6027.110213	0.101162	0.202282	1365.749390
6027.111155	0.099829	0.202282	1459.788452
6027.112048	0.099540	0.202282	1548.677490
6027.112947	0.102030	0.202282	1640.402466
6027.113837	0.100847	0.202282	1730.156494
6027.114775	0.099434	0.202282	1823.425171
6027.115677	0.100159	0.202282	1913.768311
6027.116581	0.100415	0.202282	2004.543457
6028.086736	0.705974	0.222013	314.158478
6028.087637	0.255018	0.222013	543.929993
6028.088585	0.249254	0.222013	780.222961
6028.089516	0.429723	0.222013	1180.294922
6028.090439	0.099686	0.222013	1272.305298
6028.091329	0.100975	0.222013	1362.173340
6028.092285	0.100265	0.222013	1458.026611
6028.093178	0.100770	0.222013	1548.014404
6028.094070	0.101206	0.222013	1638.290161
6028.094996	0.099833	0.222013	1730.735352
6028.095926	0.100280	0.222013	1823.995361
6028.096826	0.101345	0.222013	1915.206055
6028.097716	0.100276	0.222013	2004.451538
6028.098645	0.099437	0.222013	2096.828857
6029.139406	0.716927	0.200445	314.731171
6029.140305	0.254780	0.200445	543.778625
6029.141272	0.249042	0.200445	784.601990
6029.142205	0.411973	0.200445	1168.972412
6029.143104	0.101389	0.200445	1260.121216
6029.144028	0.100217	0.200445	1352.721924
6029.144940	0.099844	0.200445	1443.779419
6029.145856	0.101005	0.200445	1536.299683
6029.146746	0.101052	0.200445	1626.236206
6029.147672	0.100027	0.200445	1718.861084
6029.148586	0.099635	0.200445	1809.927490
6029.149488	0.101005	0.200445	1901.033691
6029.150377	0.100518	0.200445	1990.393799
6029.151338	0.099302	0.200445	2085.822754
6030.121427	0.686323	0.218802	303.354889
6030.122345	0.254956	0.218802	537.404541
6030.123245	0.249587	0.218802	762.033203
6030.124202	0.429785	0.218802	1173.337646
6030.125099	0.098738	0.218802	1261.905396
6030.125998	0.101396	0.218802	1353.060791
6030.126886	0.101096	0.218802	1442.834229
6030.127822	0.099694	0.218802	1536.147461
6030.128725	0.100283	0.218802	1626.703247
6030.129625	0.101151	0.218802	1717.739258
6030.130542	0.099836	0.218802	1809.289307
6030.131467	0.099357	0.218802	1901.194214
6030.132376	0.100565	0.218802	1992.607910
6030.133272	0.100562	0.218802	2082.710937
6031.173588	0.686514	0.200320	307.558105
6031.174480	0.254806	0.200320	534.844971
6031.175467	0.248767	0.200320	780.378052
6031.176374	0.413741	0.200320	1155.641602
6031.177261	0.100096	0.200320	1244.427124
6031.178204	0.100129	0.200320	1338.849121
6031.179106	0.100573	0.200320	1429.565552
6031.180029	0.100844	0.200320	1522.644043
6031.180926	0.101052	0.200320	1613.287964
6031.181865	0.099833	0.200320	1707.030884
6031.182785	0.100210	0.200320	1799.223999
6031.183706	0.100671	0.200320	1891.942383
6031.184596	0.100188	0.200320	1981.109741
6031.185538	0.100214	0.200320	2075.510986
6032.156106	0.727954	0.214693	315.932068
6032.157037	0.254279	0.214693	552.665405
6032.157974	0.248540	0.214693	785.547424
6032.158904	0.422076	0.214693	1178.078491
6032.159797	0.099976	0.214693	1267.356689
6032.160736	0.099847	0.214693	1361.113403
6032.161639	0.100291	0.214693	1451.675781
6032.162537	0.100909	0.214693	1542.292480
6032.163422	0.100895	0.214693	1631.584351
6032.164359	0.099657	0.214693	1724.962891
6032.165264	0.100126	0.214693	1815.576660
6032.166163	0.100624	0.214693	1906.037476
6032.167089	0.099899	0.214693	1998.543701
6032.167997	0.099448	0.214693	2088.842773
6033.207249	0.715529	0.200373	317.694672
6033.208221	0.255015	0.200373	565.568909
6033.209134	0.248251	0.200373	792.221802
6033.210033	0.435249	0.200373	1183.510742
6033.210980	0.099144	0.200373	1277.400391
6033.211889	0.101052	0.200373	1369.256836
6033.212781	0.101488	0.200373	1459.784180
6033.213671	0.100781	0.200373	1549.479492
6033.214608	0.099840	0.200373	1643.029663
6033.215515	0.100668	0.200373	1734.335327
6033.216435	0.100730	0.200373	1827.006958
6033.217332	0.099738	0.200373	1916.471558
6033.218270	0.099404	0.200373	2009.712769
6033.219175	0.100323	0.200373	2100.505615
6034.190812	0.687290	0.212953	305.156799
6034.191730	0.254795	0.212953	539.058533
6034.192639	0.249152	0.212953	765.537354
6034.193594	0.397108	0.212953	1144.775635
6034.194501	0.098906	0.212953	1234.483643
6034.195401	0.100752	0.212953	1325.160400
6034.196289	0.101503	0.212953	1415.294800
6034.197237	0.099800	0.212953	1509.905029
6034.198139	0.099789	0.212953	1599.914551
6034.199042	0.101294	0.212953	1691.382935
6034.199930	0.100488	0.212953	1780.616577
6034.200868	0.099430	0.212953	1873.881836
6034.201779	0.099789	0.212953	1964.789429
6034.202681	0.100675	0.212953	2055.598389
6035.238353	0.706161	0.208313	314.947754
6035.239251	0.254791	0.208313	543.750305
6035.240193	0.249349	0.208313	778.637390
6035.241124	0.436575	0.208313	1185.088379
6035.242027	0.100613	0.208313	1275.941772
6035.242918	0.101082	0.208313	1366.005371
6035.243866	0.099928	0.208313	1460.737061
6035.244773	0.100085	0.208313	1551.514526
6035.245666	0.101521	0.208313	1642.172729
6035.246554	0.099840	0.208313	1730.830688
6035.247500	0.099595	0.208313	1825.047363
6035.248403	0.100148	0.208313	1915.480713
6035.249301	0.100514	0.208313	2005.742187
6035.250236	0.099855	0.208313	2099.106445
6036.229069	0.714137	0.212570	311.363708
6036.230018	0.254850	0.212570	553.216187
6036.230933	0.248859	0.212570	780.921814
6036.231862	0.427709	0.212570	1178.263184
6036.232753	0.101019	0.212570	1268.271362
6036.233693	0.100104	0.212570	1362.368896
6036.234597	0.100243	0.212570	1452.988525
6036.235491	0.101144	0.212570	1543.411133
6036.236381	0.100814	0.212570	1633.135742
6036.237321	0.099481	0.212570	1726.648071
6036.238229	0.100283	0.212570	1817.705200
6036.239126	0.100730	0.212570	1908.059937
6036.240053	0.099536	0.212570	2000.329956
6036.240954	0.099122	0.212570	2089.639160
6037.266956	0.563188	0.208373	281.031067
6037.267869	0.254982	0.208373	513.829346
6037.268786	0.248188	0.208373	741.418213
6037.269687	0.430822	0.208373	1129.588379
6037.270644	0.099049	0.208373	1224.378296
6037.271558	0.101422	0.208373	1317.078125
6037.272457	0.100997	0.208373	1407.874756
6037.273388	0.099866	0.208373	1500.849731
6037.274286	0.099628	0.208373	1590.315430
6037.275181	0.100939	0.208373	1680.655518
6037.276070	0.100679	0.208373	1770.158936
6037.277015	0.099280	0.208373	1863.978271
6037.277911	0.099631	0.208373	1953.247925
6037.278809	0.101016	0.208373	2043.959961
6038.271945	0.714152	0.218412	312.084229
6038.272842	0.254550	0.218412	540.415161
6038.273821	0.248580	0.218412	783.775330
6038.274745	0.432001	0.218412	1182.943970
6038.275643	0.100375	0.218412	1273.080566
6038.276579	0.099880	0.218412	1366.568604
6038.277482	0.099888	0.218412	1456.767212
6038.278383	0.101433	0.218412	1548.158447
6038.279270	0.101155	0.218412	1637.882690
6038.280208	0.099617	0.218412	1731.323120
6038.281117	0.099946	0.218412	1822.174316
6038.282018	0.100551	0.218412	1912.770386
6038.282906	0.100620	0.218412	2002.121094
6038.283865	0.099346	0.218412	2097.393555
6039.293914	0.673008	0.205372	302.180481
6039.294836	0.254692	0.205372	537.006836
6039.295735	0.249089	0.205372	760.938171
6039.296701	0.436963	0.205372	1183.044312
6039.297602	0.099287	0.205372	1272.501953
6039.298499	0.101807	0.205372	1363.822510
6039.299387	0.100884	0.205372	1453.407349
6039.300334	0.100027	0.205372	1548.132812
6039.301240	0.100272	0.205372	1638.979492
6039.302140	0.100719	0.205372	1729.626587
6039.303072	0.099430	0.205372	1822.295288
6039.303981	0.099214	0.205372	1912.480713
6039.304891	0.100734	0.205372	2004.148315
6039.305783	0.100939	0.205372	2094.185547
6040.315337	0.733239	0.213251	317.492279
6040.316276	0.254615	0.213251	556.576172
6040.317190	0.248972	0.213251	784.136719
6040.318118	0.429712	0.213251	1182.909424
6040.319009	0.100851	0.213251	1272.767456
6040.319951	0.099844	0.213251	1366.820312
6040.320846	0.100148	0.213251	1456.452515
6040.321746	0.101217	0.213251	1547.547852
6040.322637	0.100243	0.213251	1636.864258
6040.323594	0.099386	0.213251	1731.976685
6040.324500	0.100115	0.213251	1822.680664
6040.325401	0.100320	0.213251	1913.068848
6040.326334	0.099814	0.213251	2006.195679
6040.327243	0.099247	0.213251	2096.411133
6041.322449	0.719117	0.207386	316.411652
6041.323407	0.254755	0.207386	560.466553
6041.324327	0.248507	0.207386	789.093018
6041.325228	0.426412	0.207386	1173.290527
6041.326164	0.099774	0.207386	1266.679199
6041.327074	0.099888	0.207386	1357.577026
6041.327975	0.101188	0.207386	1448.747192
6041.328874	0.101283	0.207386	1539.800537
6041.329801	0.099921	0.207386	1632.427002
6041.330710	0.099880	0.207386	1723.218262
6041.331611	0.100605	0.207386	1813.863770
6041.332498	0.100236	0.207386	1902.772705
6041.333438	0.099540	0.207386	1996.340088
6041.334345	0.099492	0.207386	2086.579590
6042.354133	0.706428	0.212039	307.296295
6042.355048	0.254751	0.212039	540.393433
6042.355945	0.249305	0.212039	764.020386
6042.356886	0.373967	0.212039	1115.923584
6042.357814	0.099924	0.212039	1208.653320
6042.358707	0.101730	0.212039	1299.497925
6042.359598	0.101246	0.212039	1389.708374
6042.360536	0.099928	0.212039	1483.440796
6042.361435	0.100785	0.212039	1574.046387
6042.362357	0.100444	0.212039	1666.656006
6042.363249	0.101162	0.212039	1756.892578
6042.364187	0.099987	0.212039	1850.679932
6042.365091	0.100375	0.212039	1941.418701
6042.365982	0.100554	0.212039	2031.012451
6043.356641	0.687195	0.216554	310.612061
6043.357565	0.254733	0.216554	545.985046
6043.358461	0.249060	0.216554	769.142883
6043.359417	0.410977	0.216554	1162.036499
6043.360327	0.099071	0.216554	1252.191162
6043.361225	0.101184	0.216554	1343.054443
6043.362116	0.101261	0.216554	1433.277954
6043.363059	0.099844	0.216554	1527.430664
6043.363959	0.099906	0.216554	1617.346069
6043.364860	0.100950	0.216554	1708.301758
6043.365747	0.100613	0.216554	1797.545288
6043.366696	0.099401	0.216554	1891.876465
6043.367604	0.099492	0.216554	1982.215332
6043.368497	0.100679	0.216554	2072.121338
6044.386286	0.617739	0.215624	286.013275
6044.387199	0.255114	0.215624	518.931885
6044.388101	0.249437	0.215624	743.924316
6044.389001	0.409325	0.215624	1112.316772
6044.389955	0.098906	0.215624	1206.673340
6044.390855	0.100510	0.215624	1297.132568
6044.391750	0.101821	0.215624	1388.262573
6044.392680	0.099983	0.215624	1481.246704
6044.393582	0.099760	0.215624	1571.229736
6044.394489	0.101202	0.215624	1663.020264
6044.395376	0.100386	0.215624	1752.062378
6044.396330	0.099591	0.215624	1847.072266
6044.397232	0.099928	0.215624	1937.207275
6044.398131	0.100265	0.215624	2027.345459
6045.399014	0.729097	0.223040	339.759064
6045.399951	0.254850	0.223040	578.553345
6045.400867	0.248276	0.223040	805.974487
6045.401777	0.431821	0.223040	1198.931885
6045.402709	0.099353	0.223040	1291.528931
6045.403610	0.099888	0.223040	1381.527710
6045.404512	0.101133	0.223040	1472.749512
6045.405400	0.101261	0.223040	1562.669312
6045.406358	0.099492	0.223040	1657.982788
6045.407262	0.100609	0.223040	1748.933472
6045.408150	0.100400	0.223040	1838.088989
6045.409082	0.099792	0.223040	1931.095581
6045.409997	0.099368	0.223040	2022.016968
6045.410904	0.100089	0.223040	2112.797852
6046.411719	0.728357	0.208373	317.563629
6046.412688	0.255125	0.208373	564.779297
6046.413602	0.248551	0.208373	791.954956
6046.414515	0.426134	0.208373	1181.015381
6046.415402	0.099829	0.208373	1269.563843
6046.416353	0.100027	0.208373	1364.689331
6046.417264	0.100627	0.208373	1456.360962
6046.418160	0.100770	0.208373	1546.651123
6046.419096	0.099877	0.208373	1640.135742
6046.420006	0.099426	0.208373	1730.613647
6046.420911	0.100554	0.208373	1821.615234
6046.421797	0.101499	0.208373	1911.543335
6046.422731	0.099185	0.208373	2004.181763
6046.423632	0.099133	0.208373	2093.500977
6047.443932	0.701001	0.216691	316.852448
6047.444830	0.254846	0.216691	545.704346
6047.445771	0.249075	0.216691	780.083618
6047.446692	0.415137	0.216691	1162.424561
6047.447592	0.100126	0.216691	1252.537720
6047.448480	0.100807	0.216691	1342.054199
6047.449428	0.100082	0.216691	1436.931763
6047.450338	0.100481	0.216691	1528.369385
6047.451239	0.101158	0.216691	1619.513184
6047.452157	0.099858	0.216691	1711.183228
6047.453070	0.099342	0.216691	1801.882568
6047.453977	0.099609	0.216691	1892.228271
6047.454870	0.100441	0.216691	1981.921753
6047.455804	0.099130	0.216691	2074.508789
6048.436687	0.702209	0.205613	309.674377
6048.437590	0.254568	0.205613	539.549194
6048.438488	0.249214	0.205613	763.343262
6048.439465	0.428269	0.205613	1181.762207
6048.440365	0.100023	0.205613	1271.783081
6048.441261	0.100415	0.205613	1361.755005
6048.442195	0.100543	0.205613	1455.662354
6048.443098	0.099807	0.205613	1545.788208
6048.443994	0.100470	0.205613	1635.809326
6048.444879	0.100800	0.205613	1725.016968
6048.445819	0.099500	0.205613	1818.546509
6048.446728	0.099719	0.205613	1909.191284
6048.447629	0.100668	0.205613	1999.892944
6048.448523	0.100349	0.205613	2089.604980
6049.484751	0.695493	0.214657	305.321503
6049.485649	0.254601	0.214657	533.953064
6049.486614	0.248752	0.214657	773.999207
6049.487525	0.435480	0.214657	1170.721191
6049.488452	0.099928	0.214657	1263.354370
6049.489339	0.100459	0.214657	1352.461426
6049.490285	0.100411	0.214657	1447.450562
6049.491189	0.100833	0.214657	1538.603149
6049.492085	0.101477	0.214657	1629.526611
6049.493020	0.099910	0.214657	1722.942139
6049.493919	0.100789	0.214657	1813.551025
6049.494839	0.099836	0.214657	1905.400513
6049.495725	0.101019	0.214657	1994.903564
6049.496690	0.100397	0.214657	2091.786377
6050.467279	0.714470	0.211503	315.081360
6050.468174	0.254641	0.211503	542.985168
6050.469118	0.249291	0.211503	778.315674
6050.470049	0.424171	0.211503	1173.218994
6050.470942	0.099785	0.211503	1262.327148
6050.471850	0.100558	0.211503	1353.633667
6050.472775	0.099895	0.211503	1446.036621
6050.473682	0.100719	0.211503	1537.388794
6050.474576	0.101268	0.211503	1627.922607
6050.475529	0.099730	0.211503	1722.965454
6050.476425	0.099525	0.211503	1812.140015
6050.477324	0.101093	0.211503	1903.022217
6050.478212	0.100280	0.211503	1992.070435
6050.479151	0.099360	0.211503	2085.369873
6051.521477	0.732689	0.214875	315.789032
6051.522418	0.255026	0.214875	555.768127
6051.523344	0.249210	0.214875	786.536804
6051.524255	0.432023	0.214875	1180.109497
6051.525143	0.099697	0.214875	1268.640625
6051.526088	0.099910	0.214875	1363.055298
6051.526998	0.100957	0.214875	1454.926147
6051.527896	0.100873	0.214875	1545.509888
6051.528797	0.100159	0.214875	1635.752930
6051.529748	0.100173	0.214875	1731.017822
6051.530654	0.100422	0.214875	1822.000488
6051.531545	0.101755	0.214875	1912.664551
6051.532476	0.099540	0.214875	2005.336060
6051.533389	0.099946	0.214875	2096.586914
6052.505560	0.672491	0.222645	299.931213
6052.506476	0.254535	0.222645	533.085205
6052.507385	0.248789	0.222645	759.234436
6052.508321	0.350863	0.222645	1087.642212
6052.509235	0.098815	0.222645	1177.958862
6052.510150	0.100964	0.222645	1270.341309
6052.511045	0.101320	0.222645	1361.022339
6052.511979	0.099818	0.222645	1454.252441
6052.512888	0.100016	0.222645	1545.166870
6052.513785	0.101345	0.222645	1636.073486
6052.514673	0.100942	0.222645	1725.710327
6052.515621	0.099320	0.222645	1819.865723
6052.516535	0.099987	0.222645	1911.253418
6052.517432	0.101052	0.222645	2001.897339
6053.550543	0.719257	0.211652	315.034393
6053.551436	0.254531	0.211652	542.330811
6053.552384	0.249042	0.211652	778.422363
6053.553317	0.430228	0.211652	1179.825317
6053.554210	0.100265	0.211652	1269.361816
6053.555141	0.100151	0.211652	1362.602783
6053.556048	0.099745	0.211652	1453.071411
6053.556946	0.101290	0.211652	1544.030029
6053.557834	0.100378	0.211652	1633.166016
6053.558782	0.099415	0.211652	1727.411743
6053.559683	0.099712	0.211652	1817.252197
6053.560578	0.101169	0.211652	1907.798828
6053.561479	0.099950	0.211652	1997.853760
6053.562415	0.099393	0.211652	2090.885986
6054.546452	0.565082	0.221533	289.886963
6054.547365	0.255114	0.221533	522.805603
6054.548297	0.248192	0.221533	754.120667
6054.549199	0.429192	0.221533	1141.251709
6054.550158	0.100507	0.221533	1237.637573
6054.551083	0.101166	0.221533	1331.215942
6054.551976	0.101415	0.221533	1421.779297
6054.552901	0.100964	0.221533	1515.171387
6054.553817	0.100287	0.221533	1607.034180
6054.554745	0.100181	0.221533	1700.001831
6054.555632	0.100602	0.221533	1789.235596
6054.556577	0.100583	0.221533	1884.286987
6054.557481	0.100016	0.221533	1974.701294
6054.558404	0.099529	0.221533	2066.566406
6055.578596	0.645168	0.205734	295.487152
6055.579520	0.254960	0.205734	531.069946
6055.580435	0.248965	0.205734	758.872803
6055.581364	0.360143	0.205734	1093.445557
6055.582275	0.099082	0.205734	1183.709229
6055.583182	0.100887	0.205734	1275.214111
6055.584074	0.101382	0.205734	1365.646729
6055.584998	0.099888	0.205734	1457.942993
6055.585902	0.099653	0.205734	1548.029541
6055.586813	0.100272	0.205734	1639.377563
6055.587706	0.099789	0.205734	1728.489014
6055.588656	0.099331	0.205734	1822.853516
6055.589570	0.099664	0.205734	1913.946655
6055.590468	0.100671	0.205734	2004.349609
6056.587213	0.718748	0.214633	315.530182
6056.588107	0.254462	0.214633	543.018921
6056.589054	0.249009	0.214633	778.830200
6056.589971	0.434147	0.214633	1176.942749
6056.590862	0.099998	0.214633	1266.040527
6056.591798	0.101030	0.214633	1360.604858
6056.592708	0.100789	0.214633	1452.322510
6056.593615	0.101481	0.214633	1544.365479
6056.594501	0.101338	0.214633	1634.150879
6056.595453	0.099584	0.214633	1728.954590
6056.596366	0.100433	0.214633	1820.650269
6056.597271	0.100844	0.214633	1911.913696
6056.598156	0.100298	0.214633	2000.677246
6056.599090	0.099305	0.214633	2093.428467
6057.606609	0.719681	0.202391	318.099182
6057.607501	0.254623	0.202391	545.222717
6057.608458	0.248921	0.202391	783.440002
6057.609386	0.419949	0.202391	1173.152466
6057.610282	0.100997	0.202391	1263.645996
6057.611209	0.100404	0.202391	1356.720581
6057.612120	0.100085	0.202391	1447.898437
6057.613028	0.101257	0.202391	1539.840088
6057.613923	0.101407	0.202391	1630.599731
6057.614860	0.099814	0.202391	1724.125854
6057.615764	0.099514	0.202391	1814.086670
6057.616662	0.101093	0.202391	1904.867798
6057.617549	0.100375	0.202391	1993.900146
6057.618486	0.099020	0.202391	2086.681641
6058.626510	0.714565	0.214854	316.552460
6058.627410	0.254385	0.214854	545.498718
6058.628385	0.248254	0.214854	787.546753
6058.629313	0.410922	0.214854	1168.882080
6058.630213	0.099932	0.214854	1258.820557
6058.631149	0.100876	0.214854	1353.240967
6058.632048	0.099950	0.214854	1443.095947
6058.632962	0.100518	0.214854	1534.968994
6058.633854	0.101162	0.214854	1625.205566
6058.634793	0.099518	0.214854	1718.652832
6058.635694	0.099657	0.214854	1808.443726
6058.636598	0.100854	0.214854	1899.616211
6058.637488	0.100638	0.214854	1989.184448
6058.638431	0.098932	0.214854	2082.477295
6059.637705	0.728181	0.212015	318.215179
6059.638599	0.254476	0.212015	545.716980
6059.639585	0.248569	0.212015	790.806335
6059.640520	0.402081	0.212015	1166.752319
6059.641412	0.099653	0.212015	1255.643066
6059.642330	0.100298	0.212015	1347.716553
6059.643249	0.100631	0.212015	1440.196533
6059.644171	0.100865	0.212015	1533.194458
6059.645060	0.101635	0.212015	1623.547607
6059.646001	0.099683	0.212015	1717.348999
6059.646919	0.100697	0.212015	1809.788818
6059.647838	0.101049	0.212015	1902.652466
6059.648728	0.100814	0.212015	1992.377075
6059.649679	0.100499	0.212015	2087.951904
6060.664320	0.729734	0.217525	360.488525
6060.665242	0.254652	0.217525	595.277710
6060.666149	0.247786	0.217525	820.019287
6060.667051	0.420835	0.217525	1199.612427
6060.667988	0.099064	0.217525	1292.435181
6060.668896	0.100258	0.217525	1383.468994
6060.669801	0.101792	0.217525	1475.590698
6060.670690	0.100364	0.217525	1564.814087
6060.671637	0.099624	0.217525	1659.158081
6060.672543	0.099840	0.217525	1749.613159
6060.673436	0.100052	0.217525	1838.960083
6060.674375	0.099587	0.217525	1932.472656
6060.675284	0.099056	0.217525	2022.514893
6060.676186	0.100400	0.217525	2113.075928
6061.671949	0.596594	0.216438	301.280090
6061.672861	0.254740	0.216438	533.602905
6061.673794	0.247870	0.216438	764.865479
6061.674693	0.425109	0.216438	1147.038086
6061.675647	0.099159	0.216438	1241.635742
6061.676544	0.101642	0.216438	1332.808472
6061.677438	0.101495	0.216438	1423.545288
6061.678380	0.100345	0.216438	1518.070679
6061.679294	0.100789	0.216438	1610.191406
6061.680203	0.100822	0.216438	1701.838135
6061.681088	0.101437	0.216438	1791.609619
6061.682035	0.099631	0.216438	1885.960449
6061.682951	0.100671	0.216438	1978.175415
6061.683869	0.100353	0.216438	2070.299316
6062.701516	0.719531	0.215930	313.715607
6062.702429	0.254941	0.215930	546.477112
6062.703333	0.249738	0.215930	772.239868
6062.704304	0.434531	0.215930	1194.169678
6062.705201	0.098877	0.215930	1282.862305
6062.706099	0.101620	0.215930	1374.116943
6062.706986	0.100613	0.215930	1463.360474
6062.707918	0.099730	0.215930	1556.309082
6062.708828	0.099778	0.215930	1647.106934
6062.709729	0.100829	0.215930	1737.953735
6062.710656	0.099595	0.215930	1830.278076
6062.711579	0.099360	0.215930	1921.987671
6062.712490	0.100389	0.215930	2013.442383
6062.713390	0.100411	0.215930	2103.812500
6063.706568	0.709065	0.217513	311.279480
6063.707461	0.254048	0.217513	538.144165
6063.708449	0.248137	0.217513	783.303711
6063.709365	0.435128	0.217513	1181.881104
6063.710258	0.100118	0.217513	1271.286865
6063.711205	0.100558	0.217513	1366.515137
6063.712111	0.100543	0.217513	1457.607300
6063.713005	0.100507	0.217513	1547.460205
6063.713898	0.100964	0.217513	1637.621338
6063.714842	0.099646	0.217513	1731.687134
6063.715750	0.100554	0.217513	1822.990356
6063.716649	0.101400	0.217513	1914.149048
6063.717543	0.100089	0.217513	2003.628662
6063.718494	0.099302	0.217513	2098.064697
6064.737763	0.664369	0.215169	299.630371
6064.738685	0.254945	0.215169	534.689697
6064.739584	0.249196	0.215169	758.716492
6064.740536	0.380057	0.215169	1120.531128
6064.741440	0.098914	0.215169	1209.948975
6064.742346	0.100422	0.215169	1300.931641
6064.743238	0.100415	0.215169	1390.501831
6064.744169	0.099730	0.215169	1483.350708
6064.745071	0.099771	0.215169	1573.343750
6064.745982	0.100902	0.215169	1665.265625
6064.746869	0.100690	0.215169	1754.577393
6064.747823	0.099598	0.215169	1849.594238
6064.748732	0.100345	0.215169	1940.808228
6064.749622	0.100693	0.215169	2030.425293
6065.742288	0.714551	0.214935	319.404205
6065.743187	0.254418	0.214935	548.125732
6065.744141	0.248741	0.214935	785.425049
6065.745069	0.427324	0.214935	1181.981934
6065.745973	0.100210	0.214935	1272.571777
6065.746860	0.100353	0.214935	1361.584717
6065.747802	0.099965	0.214935	1455.751343
6065.748713	0.100994	0.214935	1547.756592
6065.749602	0.101268	0.214935	1637.784180
6065.750547	0.099800	0.214935	1732.094971
6065.751452	0.099939	0.214935	1822.539795
6065.752354	0.101221	0.214935	1913.840820
6065.753248	0.100122	0.214935	2003.349976
6065.754197	0.099152	0.214935	2097.444824
6066.771979	0.541820	0.211084	271.993652
6066.772901	0.255333	0.211084	507.410889
6066.773823	0.248408	0.211084	736.443237
6066.774729	0.430496	0.211084	1126.472168
6066.775683	0.100206	0.211084	1222.068970
6066.776610	0.100818	0.211084	1315.527100
6066.777502	0.101488	0.211084	1406.054443
6066.778434	0.100997	0.211084	1500.183960
6066.779349	0.100620	0.211084	1592.251343
6066.780267	0.100844	0.211084	1684.825684
6066.781156	0.100225	0.211084	1773.925415
6066.782102	0.100243	0.211084	1868.755249
6066.783003	0.100312	0.211084	1959.136841
6066.783928	0.100367	0.211084	2051.976807
6067.778524	0.678867	0.207156	306.169128
6067.779417	0.254832	0.207156	533.733643
6067.780375	0.249093	0.207156	772.364746
6067.781293	0.409431	0.207156	1148.222534
6067.782190	0.100276	0.207156	1238.170044
6067.783085	0.100763	0.207156	1328.352905
6067.784022	0.099855	0.207156	1421.916748
6067.784920	0.100232	0.207156	1511.925049
6067.785825	0.101301	0.207156	1603.602661
6067.786721	0.100181	0.207156	1693.364502
6067.787652	0.099401	0.207156	1785.906494
6067.788557	0.099390	0.207156	1875.854126
6067.789449	0.100833	0.207156	1965.796753
6067.790390	0.099529	0.207156	2059.453369
6068.805591	0.700891	0.213360	316.802795
6068.806482	0.254648	0.213360	543.694580
6068.807431	0.248954	0.213360	779.951782
6068.808367	0.429027	0.213360	1181.521118
6068.809269	0.101294	0.213360	1272.888306
6068.810158	0.100547	0.213360	1362.274414
6068.811108	0.099639	0.213360	1456.931152
6068.812015	0.101034	0.213360	1548.568970
6068.812908	0.100829	0.213360	1638.609131
6068.813829	0.100052	0.213360	1730.757446
6068.814738	0.099595	0.213360	1821.289062
6068.815643	0.100580	0.213360	1912.313843
6068.816528	0.100587	0.213360	2001.333496
6068.817459	0.099327	0.213360	2093.807373
6069.815755	0.719084	0.201484	313.520813
6069.816696	0.254857	0.201484	553.341431
6069.817620	0.249126	0.201484	783.533813
6069.818536	0.422505	0.201484	1170.548340
6069.819429	0.099888	0.201484	1259.748047
6069.820379	0.099950	0.201484	1354.700439
6069.821288	0.100045	0.201484	1445.641479
6069.822191	0.101396	0.201484	1537.202515
6069.823076	0.100280	0.201484	1625.949951
6069.824013	0.099386	0.201484	1719.074585
6069.824919	0.100074	0.201484	1809.742065
6069.825814	0.100675	0.201484	1899.846191
6069.826750	0.099719	0.201484	1993.183350
6069.827656	0.098928	0.201484	2082.812256
6070.836175	0.714492	0.213158	317.234528
6070.837147	0.254960	0.213158	565.055359
6070.838063	0.248291	0.213158	792.489929
6070.838964	0.432825	0.213158	1182.464966
6070.839892	0.099983	0.213158	1275.249146
6070.840808	0.099807	0.213158	1366.672485
6070.841719	0.100829	0.213158	1458.527588
6070.842614	0.101199	0.213158	1549.100464
6070.843549	0.099532	0.213158	1642.163330
6070.844454	0.099712	0.213158	1732.402588
6070.845359	0.101147	0.213158	1823.941040
6070.846244	0.099763	0.213158	1912.231445
6070.847200	0.099371	0.213158	2007.230469
6070.848104	0.099987	0.213158	2097.618408
6071.854570	0.673385	0.203116	311.103851
6071.855469	0.254744	0.203116	540.118408
6071.856368	0.249207	0.203116	764.155090
6071.857311	0.382375	0.203116	1124.735107
6071.858239	0.100382	0.203116	1217.889648
6071.859139	0.101488	0.203116	1309.228882
6071.860032	0.101481	0.203116	1399.851196
6071.860964	0.099730	0.203116	1492.799805
6071.861875	0.100338	0.203116	1584.207886
6071.862798	0.100961	0.203116	1677.394653
6071.863686	0.100679	0.203116	1766.797363
6071.864646	0.099690	0.203116	1862.499756
6071.865543	0.100199	0.203116	1952.378174
6071.866432	0.100393	0.203116	2041.627563
6072.865739	0.718110	0.217997	315.968567
6072.866716	0.254894	0.217997	564.999756
6072.867626	0.248306	0.217997	790.957886
6072.868534	0.432546	0.217997	1183.709961
6072.869422	0.100327	0.217997	1272.800415
6072.870362	0.099902	0.217997	1366.708618
6072.871263	0.100953	0.217997	1457.667603
6072.872164	0.101147	0.217997	1548.801514
6072.873096	0.099998	0.217997	1641.999268
6072.873995	0.099368	0.217997	1731.330811
6072.874891	0.100360	0.217997	1821.253418
6072.875780	0.100562	0.217997	1910.652588
6072.876719	0.099108	0.217997	2003.714722
6072.877612	0.099236	0.217997	2092.332275
6073.895374	0.704945	0.207362	310.175812
6073.896319	0.254667	0.207362	550.835876
6073.897236	0.249229	0.207362	779.378418
6073.898147	0.467509	0.207362	1205.278687
6073.899038	0.102078	0.207362	1296.229858
6073.899991	0.100254	0.207362	1391.771851
6073.900885	0.100701	0.207362	1481.798218
6073.901784	0.102389	0.207362	1573.845825
6073.902676	0.101488	0.207362	1664.373169
6073.903625	0.099774	0.207362	1759.058838
6073.904533	0.100975	0.207362	1850.744385
6073.905432	0.101298	0.207362	1941.810913
6073.906368	0.099932	0.207362	2035.346924
6073.907274	0.099067	0.207362	2125.102051
6074.895312	0.716547	0.223407	313.847412
6074.896262	0.255194	0.223407	556.281799
6074.897173	0.249844	0.223407	783.889465
6074.898075	0.486888	0.223407	1223.062866
6074.898965	0.101085	0.223407	1313.028687
6074.899909	0.100151	0.223407	1407.571533
6074.900814	0.100800	0.223407	1498.795166
6074.901716	0.102070	0.223407	1590.862549
6074.902605	0.100730	0.223407	1680.411499
6074.903559	0.099749	0.223407	1775.571655
6074.904480	0.100979	0.223407	1868.573364
6074.905372	0.101437	0.223407	1959.054932
6074.906308	0.099763	0.223407	2052.433350
6074.907208	0.099016	0.223407	2141.547852
6075.936736	0.678717	0.199652	305.422699
6075.937659	0.254850	0.199652	540.649109
6075.938561	0.249218	0.199652	765.443298
6075.939523	0.405322	0.199652	1155.363281
6075.940420	0.098774	0.199652	1243.963867
6075.941324	0.101338	0.199652	1335.573364
6075.942217	0.100521	0.199652	1425.338867
6075.943148	0.099734	0.199652	1518.191162
6075.944049	0.099873	0.199652	1608.176758
6075.944951	0.100474	0.199652	1698.803955
6075.945841	0.099913	0.199652	1787.726807
6075.946781	0.099331	0.199652	1881.098022
6075.947692	0.100009	0.199652	1972.205811
6075.948581	0.100719	0.199652	2061.745117
6076.924376	0.690824	0.226484	306.725830
6076.925287	0.254535	0.226484	538.607178
6076.926181	0.249250	0.226484	761.437134
6076.927135	0.426537	0.226484	1168.353271
6076.928044	0.100653	0.226484	1259.846924
6076.928969	0.100796	0.226484	1353.083130
6076.929859	0.100551	0.226484	1442.573120
6076.930817	0.101338	0.226484	1539.654785
6076.931711	0.100723	0.226484	1629.700806
6076.932599	0.100312	0.226484	1718.778320
6076.933538	0.100397	0.226484	1813.050903
6076.934457	0.100360	0.226484	1905.281860
6076.935368	0.101261	0.226484	1997.530640
6076.936256	0.100503	0.226484	2086.777344
6077.976096	0.662794	0.197867	348.629730
6077.977006	0.255092	0.197867	580.763062
6077.977916	0.248093	0.197867	806.527954
6077.978818	0.421802	0.197867	1186.993164
6077.979772	0.098932	0.197867	1281.374146
6077.980681	0.100477	0.197867	1372.708008
6077.981581	0.101129	0.197867	1463.724243
6077.982503	0.100012	0.197867	1555.935547
6077.983396	0.099716	0.197867	1644.981567
6077.984307	0.100829	0.197867	1736.836670
6077.985196	0.100671	0.197867	1826.333496
6077.986123	0.099467	0.197867	1918.538940
6077.987030	0.099569	0.197867	2008.848145
6077.987933	0.100701	0.197867	2099.780762
6078.956560	0.550924	0.219491	279.318512
6078.957478	0.254780	0.219491	513.206787
6078.958381	0.248046	0.219491	737.192017
6078.959278	0.421571	0.219491	1115.341309
6078.960231	0.098881	0.219491	1209.574585
6078.961127	0.100565	0.219491	1299.681030
6078.962016	0.101096	0.219491	1389.555542
6078.962953	0.099840	0.219491	1483.105713
6078.963869	0.100100	0.219491	1574.797363
6078.964769	0.100909	0.219491	1665.615845
6078.965665	0.100664	0.219491	1755.810791
6078.966611	0.099291	0.219491	1849.739868
6078.967520	0.100166	0.219491	1940.790771
6078.968418	0.100243	0.219491	2030.808960
6080.009689	0.698877	0.204860	307.505829
6080.010612	0.254755	0.204860	542.644348
6080.011519	0.248990	0.204860	768.478699
6080.012479	0.423790	0.204860	1175.317383
6080.013382	0.098621	0.204860	1264.371826
6080.014283	0.101265	0.204860	1355.611328
6080.015173	0.100902	0.204860	1445.414185
6080.016129	0.099697	0.204860	1540.724731
6080.017028	0.100071	0.204860	1630.688354
6080.017924	0.100616	0.204860	1720.840698
6080.018809	0.099965	0.204860	1809.309326
6080.019745	0.099441	0.204860	1902.385986
6080.020657	0.100430	0.204860	1993.977905
6080.021553	0.100646	0.204860	2084.156494
6080.995272	0.718623	0.205364	312.601013
6080.996245	0.255143	0.205364	560.854980
6080.997155	0.248591	0.205364	787.073059
6080.998062	0.421190	0.205364	1169.092529
6080.999004	0.099320	0.205364	1262.651978
6080.999906	0.099895	0.205364	1352.757324
6081.000803	0.101338	0.205364	1443.657471
6081.001695	0.101803	0.205364	1534.465698
6081.002638	0.099712	0.205364	1628.494019
6081.003544	0.099803	0.205364	1718.916016
6081.004451	0.101199	0.205364	1810.703247
6081.005340	0.100294	0.205364	1899.864746
6081.006296	0.099185	0.205364	1994.685181
6081.007200	0.099631	0.205364	2084.751953
6082.038218	0.718909	0.219044	314.163086
6082.039159	0.254652	0.219044	553.790710
6082.040087	0.249056	0.219044	784.915039
6082.041008	0.483614	0.219044	1230.323975
6082.041901	0.101323	0.219044	1320.805664
6082.042840	0.100433	0.219044	1415.112549
6082.043759	0.101440	0.219044	1508.336304
6082.044664	0.102429	0.219044	1601.034790
6082.045552	0.101411	0.219044	1691.087891
6082.046502	0.099239	0.219044	1785.365479
6082.047402	0.101038	0.219044	1876.299316
6082.048295	0.102352	0.219044	1967.699951
6082.049225	0.100195	0.219044	2060.881592
6082.050142	0.101071	0.219044	2153.563232
6083.039710	0.664373	0.204647	298.967651
6083.040609	0.254718	0.204647	527.959106
6083.041502	0.249675	0.204647	750.919128
6083.042502	0.478865	0.204647	1229.783936
6083.043403	0.099393	0.204647	1319.337280
6083.044303	0.102389	0.204647	1411.487305
6083.045216	0.101246	0.204647	1503.925171
6083.046144	0.099774	0.204647	1596.515625
6083.047050	0.100668	0.204647	1687.720581
6083.047950	0.102037	0.204647	1779.554199
6083.048884	0.100382	0.204647	1873.311035
6083.049783	0.099375	0.204647	1962.649170
6083.050681	0.101667	0.204647	2053.946533
6083.051570	0.101829	0.204647	2144.472168
6084.063734	0.608280	0.223000	293.799255
6084.064629	0.255425	0.223000	522.404480
6084.065576	0.248965	0.223000	758.174194
6084.066501	0.425596	0.223000	1151.850220
6084.067404	0.100598	0.223000	1242.690308
6084.068295	0.100518	0.223000	1332.251465
6084.069249	0.099895	0.223000	1427.551270
6084.070157	0.100452	0.223000	1518.761353
6084.071062	0.100851	0.223000	1610.031372
6084.071998	0.099899	0.223000	1703.536499
6084.072900	0.099353	0.223000	1793.152954
6084.073796	0.100309	0.223000	1883.029663
6084.074682	0.100660	0.223000	1972.214722
6084.075620	0.098877	0.223000	2064.961426
6085.083611	0.672550	0.206057	301.974945
6085.084517	0.254216	0.206057	532.294922
6085.085415	0.249126	0.206057	756.010071
6085.086346	0.419509	0.206057	1146.573242
6085.087286	0.101250	0.206057	1241.748291
6085.088203	0.101814	0.206057	1335.111694
6085.089098	0.102671	0.206057	1427.002197
6085.090030	0.101228	0.206057	1521.346680
6085.090932	0.100902	0.206057	1612.360352
6085.091846	0.101576	0.206057	1705.200684
6085.092739	0.101118	0.206057	1795.499146
6085.093693	0.100796	0.206057	1891.658447
6085.094607	0.102158	0.206057	1985.031006
6085.095503	0.101169	0.206057	2075.678711
6086.091214	0.714247	0.225437	314.982880
6086.092156	0.255070	0.225437	555.258423
6086.093076	0.248826	0.225437	784.178040
6086.094001	0.488375	0.225437	1235.925171
6086.094891	0.099719	0.225437	1324.675293
6086.095852	0.099858	0.225437	1420.639160
6086.096759	0.100763	0.225437	1512.031128
6086.097655	0.101620	0.225437	1603.082520
6086.098590	0.100258	0.225437	1696.823364
6086.099488	0.099855	0.225437	1786.492920
6086.100387	0.101909	0.225437	1878.109253
6086.101271	0.102565	0.225437	1968.776489
6086.102201	0.099558	0.225437	2061.365479
6086.103101	0.100697	0.225437	2151.992676
6087.122908	0.678417	0.206919	303.930725
6087.123816	0.255220	0.206919	535.670227
6087.124710	0.250360	0.206919	759.492187
6087.125678	0.445049	0.206919	1190.299438
6087.126583	0.099924	0.206919	1280.730957
6087.127483	0.102246	0.206919	1372.752441
6087.128372	0.101305	0.206919	1462.812500
6087.129333	0.099470	0.206919	1558.403320
6087.130233	0.101631	0.206919	1649.871094
6087.131128	0.102480	0.206919	1741.591064
6087.132057	0.100708	0.206919	1835.148804
6087.132964	0.099635	0.206919	1925.517822
6087.133862	0.102041	0.206919	2017.150635
6087.134750	0.102059	0.206919	2107.779297
6088.122843	0.686818	0.218218	310.441559
6088.123742	0.254802	0.218218	539.508789
6088.124640	0.249137	0.218218	763.233765
6088.125615	0.486185	0.218218	1237.264404
6088.126524	0.100594	0.218218	1328.704834
6088.127422	0.102374	0.218218	1420.636963
6088.128354	0.100305	0.218218	1514.121338
6088.129261	0.099683	0.218218	1604.533447
6088.130165	0.101481	0.218218	1696.271973
6088.131051	0.101294	0.218218	1786.018433
6088.131996	0.099463	0.218218	1880.010864
6088.132896	0.100573	0.218218	1970.526123
6088.133791	0.101935	0.218218	2061.757812
6088.134700	0.100184	0.218218	2152.825439
6089.157063	0.732477	0.211692	317.894958
6089.157994	0.254667	0.211692	554.989685
6089.158930	0.249382	0.211692	788.411499
6089.159849	0.490507	0.211692	1239.187012
6089.160749	0.100840	0.211692	1329.942871
6089.161685	0.099928	0.211692	1423.475464
6089.162586	0.100045	0.211692	1513.616211
6089.163500	0.101411	0.211692	1606.306030
6089.164397	0.101495	0.211692	1697.347412
6089.165340	0.099463	0.211692	1791.140869
6089.166246	0.100668	0.211692	1882.345825
6089.167136	0.101429	0.211692	1972.618042
6089.168073	0.100605	0.211692	2066.885254
6089.168981	0.099346	0.211692	2157.091064
6090.160072	0.715953	0.211511	312.155701
6090.160965	0.255117	0.211511	539.975342
6090.161949	0.249338	0.211511	785.324280
6090.162875	0.485295	0.211511	1234.707764
6090.163773	0.101071	0.211511	1325.469116
6090.164705	0.100503	0.211511	1419.137817
6090.165614	0.099851	0.211511	1509.902466
6090.166512	0.101594	0.211511	1601.134033
6090.167400	0.102576	0.211511	1692.221191
6090.168335	0.099580	0.211511	1785.328613
6090.169241	0.100126	0.211511	1876.042480
6090.170147	0.102491	0.211511	1968.899780
6090.171037	0.101001	0.211511	2058.790527
6090.171987	0.099349	0.211511	2153.172363
6091.187154	0.703879	0.210697	309.003052
6091.188095	0.255396	0.210697	549.330200
6091.189014	0.249661	0.210697	778.768311
6091.189919	0.482406	0.210697	1215.345703
6091.190808	0.100232	0.210697	1304.451904
6091.191755	0.100188	0.210697	1399.329956
6091.192652	0.100906	0.210697	1489.842407
6091.193551	0.101554	0.210697	1581.139404
6091.194479	0.100496	0.210697	1674.399292
6091.195402	0.099434	0.210697	1766.176514
6091.196312	0.101796	0.210697	1858.810547
6091.197213	0.101407	0.210697	1950.178711
6091.198157	0.099481	0.210697	2044.088989
6091.199052	0.099254	0.210697	2132.921387
6092.199400	0.664812	0.199567	303.819092
6092.200298	0.255238	0.199567	533.022827
6092.201193	0.250166	0.199567	756.921387
6092.202169	0.465267	0.199567	1211.022339
6092.203063	0.101162	0.199567	1301.461304
6092.203982	0.103462	0.199567	1396.542847
6092.204884	0.101697	0.199567	1488.273315
6092.205820	0.100272	0.199567	1582.128174
6092.206726	0.102891	0.199567	1675.347046
6092.207619	0.102045	0.199567	1766.472900
6092.208535	0.101074	0.199567	1859.056885
6092.209462	0.101129	0.199567	1952.803589
6092.210359	0.101136	0.199567	2043.522949
6092.211253	0.102349	0.199567	2135.022705
6093.216729	0.672440	0.216522	297.891022
6093.217671	0.255168	0.216522	538.259705
6093.218578	0.249727	0.216522	764.761719
6093.219508	0.432810	0.216522	1167.275024
6093.220392	0.100481	0.216522	1256.100220
6093.221328	0.099965	0.216522	1349.667114
6093.222232	0.100148	0.216522	1440.200684
6093.223131	0.101752	0.216522	1531.675415
6093.224022	0.100730	0.216522	1621.425781
6093.224976	0.099668	0.216522	1716.509033
6093.225882	0.100345	0.216522	1807.421997
6093.226781	0.100605	0.216522	1897.866333
6093.227716	0.099869	0.216522	1991.244263
6093.228622	0.099100	0.216522	2081.029297
6094.238164	0.689832	0.200917	306.975037
6094.239081	0.255139	0.200917	540.937622
6094.239994	0.249690	0.200917	768.904541
6094.240942	0.464905	0.200917	1209.634277
6094.241845	0.099232	0.200917	1299.240967
6094.242741	0.101572	0.200917	1390.249756
6094.243624	0.103304	0.200917	1481.467529
6094.244557	0.099858	0.200917	1574.635376
6094.245460	0.100540	0.200917	1665.422607
6094.246361	0.101895	0.200917	1757.229614
6094.247250	0.101858	0.200917	1847.781250
6094.248216	0.099331	0.200917	1943.735107
6094.249124	0.100620	0.200917	2035.098145
6094.250026	0.101946	0.200917	2127.053223
6095.246286	0.700514	0.217203	310.327698
6095.247178	0.255143	0.217203	537.915100
6095.248160	0.249441	0.217203	782.866089
6095.249087	0.487126	0.217203	1234.432373
6095.249980	0.102513	0.217203	1325.976807
6095.250907	0.100935	0.217203	1419.543579
6095.251815	0.099910	0.217203	1510.261597
6095.252713	0.101982	0.217203	1601.841797
6095.253602	0.101873	0.217203	1692.406494
6095.254541	0.099884	0.217203	1786.197632
6095.255444	0.100239	0.217203	1876.713623
6095.256345	0.102133	0.217203	1968.735107
6095.257232	0.100858	0.217203	2058.196289
6095.258169	0.099434	0.217203	2151.365479
6096.276430	0.729086	0.203825	320.797699
6096.277370	0.255015	0.203825	560.511475
6096.278284	0.249415	0.203825	788.477051
6096.279211	0.463407	0.203825	1218.055298
6096.280100	0.101140	0.203825	1307.968872
6096.281052	0.100049	0.203825	1403.215332
6096.281955	0.100481	0.203825	1493.949585
6096.282859	0.102111	0.203825	1586.257568
6096.283749	0.101041	0.203825	1676.184326
6096.284703	0.099591	0.203825	1771.194214
6096.285601	0.100979	0.203825	1861.873413
6096.286499	0.102356	0.203825	1953.789062
6096.287434	0.100056	0.203825	2047.341553
6096.288331	0.099518	0.203825	2136.609131
6097.277893	0.726940	0.217807	315.491852
6097.278843	0.255223	0.217807	557.954041
6097.279771	0.249324	0.217807	789.326477
6097.280712	0.479736	0.217807	1240.758301
6097.281602	0.101239	0.217807	1330.861084
6097.282555	0.102286	0.217807	1428.339966
6097.283477	0.101938	0.217807	1522.327271
6097.284366	0.101675	0.217807	1612.716187
6097.285298	0.101484	0.217807	1707.299561
6097.286209	0.101466	0.217807	1799.735107
6097.287121	0.102437	0.217807	1893.157227
6097.288019	0.101704	0.217807	1984.487549
6097.288972	0.100983	0.217807	2080.724121
6097.289890	0.102268	0.217807	2174.606201
6098.313674	0.722549	0.205376	316.476379
6098.314620	0.255703	0.205376	558.371521
6098.315548	0.249324	0.205376	789.743958
6098.316464	0.431697	0.205376	1185.178223
6098.317405	0.098994	0.205376	1278.331665
6098.318311	0.099877	0.205376	1368.819946
6098.319215	0.101730	0.205376	1460.783691
6098.320104	0.100789	0.205376	1550.384766
6098.321046	0.099613	0.205376	1644.220215
6098.321951	0.100151	0.205376	1734.857178
6098.322844	0.100353	0.205376	1824.472168
6098.323774	0.099811	0.205376	1917.296143
6098.324680	0.099357	0.205376	2007.313354
6098.325586	0.100298	0.205376	2098.183105
6099.312108	0.659846	0.218826	304.848938
6099.313006	0.255165	0.218826	533.986938
6099.313901	0.249928	0.218826	757.672485
6099.314859	0.481791	0.218826	1219.228027
6099.315758	0.100082	0.218826	1309.201538
6099.316681	0.102422	0.218826	1403.736938
6099.317582	0.101440	0.218826	1495.134766
6099.318538	0.100854	0.218826	1591.551636
6099.319438	0.101195	0.218826	1682.627197
6099.320330	0.102166	0.218826	1773.758789
6099.321266	0.100540	0.218826	1867.863770
6099.322182	0.100660	0.218826	1960.068726
6099.323080	0.100829	0.218826	2050.613037
6099.323964	0.102480	0.218826	2141.205811
6100.349389	0.723303	0.198862	316.806824
6100.350350	0.254996	0.198862	561.858276
6100.351256	0.249192	0.198862	787.626099
6100.352168	0.480765	0.198862	1226.084106
6100.353059	0.101016	0.198862	1316.088989
6100.354001	0.100082	0.198862	1410.366089
6100.354903	0.100635	0.198862	1501.138672
6100.355806	0.102740	0.198862	1593.913330
6100.356692	0.101569	0.198862	1683.903076
6100.357637	0.099968	0.198862	1778.373047
6100.358548	0.101554	0.198862	1870.888672
6100.359440	0.101946	0.198862	1961.824341
6100.360387	0.100162	0.198862	2056.677979
6100.361282	0.099452	0.198862	2145.687500
6101.346762	0.718396	0.218863	314.657440
6101.347738	0.255469	0.218863	563.994934
6101.348661	0.248921	0.218863	793.748901
6101.349572	0.490814	0.218863	1240.880615
6101.350471	0.099840	0.218863	1330.636841
6101.351406	0.100349	0.218863	1424.463257
6101.352315	0.101693	0.218863	1516.902344
6101.353208	0.101484	0.218863	1607.527832
6101.354143	0.099990	0.218863	1701.018677
6101.355055	0.100708	0.218863	1792.864380
6101.355960	0.102367	0.218863	1885.506470
6101.356850	0.101602	0.218863	1975.931885
6101.357802	0.099602	0.218863	2070.752930
6101.358692	0.100569	0.218863	2160.259277
6102.383048	0.733517	0.199438	319.079834
6102.384020	0.255073	0.199438	567.010986
6102.384938	0.248815	0.199438	795.422852
6102.385838	0.484438	0.199438	1231.417480
6102.386779	0.100327	0.199438	1325.825317
6102.387685	0.100027	0.199438	1416.449707
6102.388583	0.101777	0.199438	1507.845703
6102.389470	0.102623	0.199438	1598.872559
6102.390405	0.099829	0.199438	1692.212769
6102.391305	0.100177	0.199438	1782.372070
6102.392209	0.101708	0.199438	1874.315918
6102.393096	0.101250	0.199438	1964.124634
6102.394045	0.099749	0.199438	2058.785889
6102.394948	0.100767	0.199438	2149.778076
6103.381966	0.705198	0.214951	308.876617
6103.382867	0.254875	0.214951	538.519409
6103.383811	0.249426	0.214951	773.977783
6103.384753	0.475759	0.214951	1222.143066
6103.385651	0.100961	0.214951	1312.805786
6103.386571	0.101052	0.214951	1405.773804
6103.387487	0.099957	0.214951	1497.334717
6103.388398	0.101525	0.214951	1589.823730
6103.389287	0.102594	0.214951	1681.029785
6103.390236	0.100323	0.214951	1776.236816
6103.391146	0.099741	0.214951	1867.001343
6103.392044	0.102371	0.214951	1958.930176
6103.392938	0.100950	0.214951	2049.179199
6103.393868	0.099375	0.214951	2141.597900
6104.415730	0.701979	0.202379	335.545837
6104.416639	0.255216	0.202379	567.537231
6104.417598	0.248968	0.202379	806.298035
6104.418520	0.467483	0.202379	1237.317261
6104.419442	0.101268	0.202379	1330.686646
6104.420327	0.102451	0.202379	1421.355957
6104.421264	0.100671	0.202379	1515.685059
6104.422171	0.102539	0.202379	1608.687988
6104.423062	0.102711	0.202379	1700.203613
6104.423972	0.100400	0.202379	1791.567993
6104.424896	0.100580	0.202379	1884.503784
6104.425797	0.103085	0.202379	1977.383057
6104.426690	0.102220	0.202379	2068.666016
6104.427644	0.099529	0.202379	2163.616455
6105.418704	0.710211	0.208582	311.782684
6105.419600	0.255117	0.208582	540.367676
6105.420549	0.249957	0.208582	777.577148
6105.421467	0.492297	0.208582	1229.506104
6105.422364	0.101840	0.208582	1320.856201
6105.423305	0.100455	0.208582	1415.384644
6105.424207	0.100316	0.208582	1505.869873
6105.425112	0.101301	0.208582	1597.547485
6105.425999	0.102129	0.208582	1688.135864
6105.426932	0.099752	0.208582	1781.204712
6105.427833	0.100441	0.208582	1871.701782
6105.428730	0.102612	0.208582	1963.744995
6105.429627	0.100518	0.208582	2053.909180
6105.430548	0.099364	0.208582	2145.423340
6106.447844	0.700792	0.200445	318.159668
6106.448739	0.254623	0.200445	546.047119
6106.449683	0.249353	0.200445	781.436401
6106.450608	0.494073	0.200445	1238.454346
6106.451501	0.101195	0.200445	1328.821533
6106.452388	0.102235	0.200445	1419.504028
6106.453329	0.099840	0.200445	1513.453613
6106.454230	0.100038	0.200445	1603.587646
6106.455129	0.102363	0.200445	1695.612183
6106.456016	0.101700	0.200445	1785.820435
6106.456959	0.099587	0.200445	1879.731323
6106.457861	0.100514	0.200445	1970.394897
6106.458759	0.101664	0.200445	2061.688965
6106.459696	0.100583	0.200445	2155.935791
6107.456968	0.719385	0.206331	311.493622
6107.457918	0.255667	0.206331	554.376831
6107.458838	0.249500	0.206331	783.916382
6107.459780	0.486328	0.206331	1242.037476
6107.460670	0.101173	0.206331	1332.081543
6107.461625	0.101697	0.206331	1429.201904
6107.462552	0.102111	0.206331	1523.858398
6107.463449	0.102155	0.206331	1615.490967
6107.464400	0.101411	0.206331	1711.932983
6107.465313	0.100737	0.206331	1803.906128
6107.466231	0.101726	0.206331	1897.290649
6107.467116	0.101506	0.206331	1987.123779
6107.468059	0.101049	0.206331	2082.412598
6107.468967	0.100876	0.206331	2174.008545
6108.478415	0.714543	0.206177	317.971832
6108.479314	0.254667	0.206177	546.917236
6108.480293	0.248815	0.206177	790.506836
6108.481231	0.479941	0.206177	1240.691895
6108.482127	0.101177	0.206177	1331.346313
6108.483057	0.100122	0.206177	1424.459839
6108.483968	0.100111	0.206177	1515.661011
6108.484874	0.101418	0.206177	1607.546143
6108.485765	0.101832	0.206177	1698.278687
6108.486715	0.099423	0.206177	1792.730225
6108.487615	0.100221	0.206177	1882.929077
6108.488505	0.101499	0.206177	1973.263184
6108.489431	0.099983	0.206177	2065.847412
6108.490353	0.099302	0.206177	2157.403564
6109.497832	0.664907	0.211088	304.527496
6109.498735	0.255103	0.211088	534.885132
6109.499626	0.250129	0.211088	757.750427
6109.500597	0.484340	0.211088	1228.044189
6109.501499	0.101869	0.211088	1319.929932
6109.502427	0.100573	0.211088	1413.261230
6109.503315	0.100734	0.211088	1502.712646
6109.504280	0.100829	0.211088	1600.012451
6109.505189	0.101107	0.211088	1691.918823
6109.506084	0.101927	0.211088	1783.143921
6109.507016	0.100269	0.211088	1876.594238
6109.507936	0.100902	0.211088	1969.424194
6109.508858	0.102045	0.211088	2063.509277
6109.509743	0.102133	0.211088	2153.896484
6110.509008	0.701591	0.204957	312.909393
6110.509975	0.255575	0.204957	560.050415
6110.510900	0.249005	0.204957	790.380127
6110.511805	0.484680	0.204957	1229.015625
6110.512751	0.100151	0.204957	1323.758789
6110.513658	0.100148	0.204957	1414.592773
6110.514559	0.102517	0.204957	1506.960693
6110.515448	0.101448	0.204957	1597.147705
6110.516392	0.099701	0.204957	1691.265381
6110.517300	0.099884	0.204957	1781.960083
6110.518203	0.101873	0.204957	1873.951050
6110.519092	0.100558	0.204957	1963.346924
6110.520018	0.099148	0.204957	2055.157959
6110.520926	0.100466	0.204957	2146.381348
6111.537103	0.693761	0.207712	303.867310
6111.538018	0.255220	0.207712	537.393372
6111.538918	0.250400	0.207712	762.753723
6111.539858	0.490902	0.207712	1224.201660
6111.540768	0.100708	0.207712	1315.845947
6111.541667	0.102762	0.207712	1408.229370
6111.542556	0.101737	0.207712	1498.673584
6111.543490	0.099902	0.207712	1591.982422
6111.544388	0.101847	0.207712	1683.440918
6111.545283	0.101429	0.207712	1774.220215
6111.546207	0.100503	0.207712	1867.084961
6111.547141	0.099862	0.207712	1960.356079
6111.548049	0.101862	0.207712	2052.846436
6111.548940	0.101818	0.207712	2143.565918
6112.540642	0.701407	0.210564	320.543213
6112.541537	0.254879	0.210564	548.660034
6112.542490	0.249130	0.210564	786.080566
6112.543413	0.488730	0.210564	1237.178711
6112.544309	0.101649	0.210564	1328.256348
6112.545197	0.102883	0.210564	1419.616699
6112.546151	0.100334	0.210564	1515.335815
6112.547056	0.100811	0.210564	1606.569336
6112.547965	0.102587	0.210564	1699.820557
6112.548855	0.100697	0.210564	1789.440918
6112.549791	0.099580	0.210564	1882.647827
6112.550702	0.100690	0.210564	1974.376099
6112.551588	0.101334	0.210564	2064.158203
6112.552518	0.099335	0.210564	2156.539551
6113.574367	0.701056	0.206641	320.382538
6113.575272	0.255308	0.206641	551.435913
6113.576224	0.249650	0.206641	789.102417
6113.577152	0.485519	0.206641	1239.663818
6113.578047	0.102191	0.206641	1331.124878
6113.578931	0.102400	0.206641	1421.646362
6113.579873	0.100331	0.206641	1516.157959
6113.580786	0.101334	0.206641	1608.676147
6113.581689	0.102953	0.206641	1701.642578
6113.582583	0.101246	0.206641	1792.156860
6113.583526	0.099763	0.206641	1886.233521
6113.584435	0.101510	0.206641	1978.506104
6113.585324	0.102462	0.206641	2069.594971
6113.586262	0.099587	0.206641	2163.008057
6114.576349	0.687451	0.215443	310.040466
6114.577270	0.254857	0.215443	544.763916
6114.578166	0.249620	0.215443	768.423767
6114.579127	0.454772	0.215443	1205.459473
6114.580019	0.099719	0.215443	1294.409058
6114.580922	0.101580	0.215443	1386.135376
6114.581814	0.101466	0.215443	1476.643066
6114.582762	0.099880	0.215443	1571.329712
6114.583670	0.101477	0.215443	1663.470825
6114.584570	0.101924	0.215443	1755.202271
6114.585492	0.100686	0.215443	1848.034790
6114.586400	0.099269	0.215443	1938.170898
6114.587314	0.101440	0.215443	2030.887451
6114.588210	0.101558	0.215443	2121.883057
6115.606497	0.677886	0.205686	305.048584
6115.607399	0.255029	0.205686	535.085022
6115.608297	0.249954	0.205686	759.543396
6115.609245	0.419139	0.205686	1156.887573
6115.610158	0.099287	0.205686	1247.536743
6115.611067	0.101129	0.205686	1339.463135
6115.611955	0.101429	0.205686	1429.532471
6115.612916	0.099884	0.205686	1525.520996
6115.613820	0.101085	0.205686	1616.901978
6115.614718	0.100920	0.205686	1707.528564
6115.615604	0.100122	0.205686	1796.236694
6115.616538	0.099298	0.205686	1888.981079
6115.617441	0.100510	0.205686	1979.741821
6115.618331	0.100653	0.205686	2069.322998
6116.615684	0.563914	0.216091	275.753754
6116.616607	0.255084	0.216091	511.196472
6116.617513	0.248668	0.216091	736.489868
6116.618412	0.480938	0.216091	1168.852661
6116.619368	0.099357	0.216091	1263.837646
6116.620276	0.100206	0.216091	1354.824951
6116.621172	0.102162	0.216091	1446.361938
6116.622102	0.100206	0.216091	1539.553833
6116.623006	0.099716	0.216091	1629.696777
6116.623898	0.101605	0.216091	1720.328613
6116.624781	0.102338	0.216091	1810.692749
6116.625719	0.099324	0.216091	1903.858398
6116.626620	0.099899	0.216091	1993.867065
6116.627522	0.102041	0.216091	2085.907959
6117.634506	0.714251	0.205420	312.127472
6117.635447	0.255245	0.205420	552.313354
6117.636364	0.249426	0.205420	781.037231
6117.637271	0.488148	0.205420	1223.787598
6117.638157	0.100148	0.205420	1312.518433
6117.639111	0.099950	0.205420	1407.870728
6117.640005	0.101217	0.205420	1498.358765
6117.640901	0.101873	0.205420	1589.636597
6117.641824	0.100529	0.205420	1682.424438
6117.642740	0.099683	0.205420	1773.733765
6117.643648	0.102155	0.205420	1866.490112
6117.644545	0.101353	0.205420	1957.403320
6117.645474	0.099781	0.205420	2050.100342
6117.646379	0.099507	0.205420	2140.154053
6118.657993	0.724343	0.215193	316.538025
6118.658890	0.254795	0.215193	545.089050
6118.659873	0.248932	0.215193	789.789062
6118.660787	0.469614	0.215193	1219.016479
6118.661677	0.102755	0.215193	1310.468506
6118.662601	0.101371	0.215193	1404.135132
6118.663522	0.101283	0.215193	1497.416748
6118.664417	0.102642	0.215193	1589.281006
6118.665306	0.102078	0.215193	1680.028076
6118.666241	0.100265	0.215193	1773.775757
6118.667154	0.100822	0.215193	1865.825806
6118.668073	0.101539	0.215193	1959.140381
6118.668975	0.101129	0.215193	2050.358887
6118.669936	0.099913	0.215193	2146.375488
6119.660000	0.673231	0.202633	305.646973
6119.660896	0.254755	0.202633	533.907104
6119.661856	0.248925	0.202633	772.874695
6119.662782	0.487185	0.202633	1224.008057
6119.663678	0.102587	0.202633	1315.925659
6119.664565	0.102572	0.202633	1406.906982
6119.665504	0.100173	0.202633	1500.969727
6119.666403	0.100734	0.202633	1591.529297
6119.667304	0.101971	0.202633	1683.405518
6119.668198	0.101646	0.202633	1774.276611
6119.669143	0.099382	0.202633	1868.192871
6119.670048	0.100990	0.202633	1959.588867
6119.670943	0.101583	0.202633	2050.505859
6119.671891	0.099723	0.202633	2145.043213
6120.699870	0.690912	0.213005	310.910309
6120.700768	0.254934	0.213005	539.841125
6120.701706	0.249489	0.213005	773.861328
6120.702635	0.491008	0.213005	1230.008057
6120.703536	0.101598	0.213005	1321.547729
6120.704423	0.102656	0.213005	1412.603760
6120.705368	0.099983	0.213005	1507.087646
6120.706266	0.100781	0.213005	1597.589233
6120.707162	0.101865	0.213005	1688.860474
6120.708049	0.100946	0.213005	1778.399658
6120.708977	0.099489	0.213005	1870.724976
6120.709890	0.100818	0.213005	1962.771729
6120.710788	0.101155	0.213005	2053.608643
6120.711721	0.100375	0.213005	2147.258301
6121.687505	0.705850	0.208993	311.985504
6121.688402	0.254905	0.208993	540.635071
6121.689367	0.249456	0.208993	781.359680
6121.690277	0.484449	0.208993	1222.208740
6121.691164	0.102345	0.208993	1312.988770
6121.692110	0.100320	0.208993	1407.891357
6121.693028	0.101221	0.208993	1500.812012
6121.693929	0.101719	0.208993	1592.460571
6121.694823	0.102308	0.208993	1683.924194
6121.695767	0.099840	0.208993	1778.173218
6121.696672	0.101349	0.208993	1869.893921
6121.697565	0.102858	0.208993	1961.745850
6121.698471	0.100459	0.208993	2052.761719
6121.699403	0.100192	0.208993	2146.140381
6122.738666	0.659736	0.208591	304.798187
6122.739582	0.255135	0.208591	538.502319
6122.740485	0.249543	0.208591	763.840088
6122.741430	0.461609	0.208591	1200.060547
6122.742335	0.099225	0.208591	1289.859009
6122.743236	0.102469	0.208591	1382.183960
6122.744127	0.103337	0.208591	1474.257568
6122.745080	0.099935	0.208591	1569.495850
6122.745982	0.100466	0.208591	1660.116455
6122.746879	0.102711	0.208591	1752.248413
6122.747764	0.101521	0.208591	1842.094482
6122.748699	0.099606	0.208591	1935.225830
6122.749605	0.101122	0.208591	2026.842163
6122.750504	0.102045	0.208591	2118.580322
6123.719136	0.659209	0.214448	298.621674
6123.720042	0.254623	0.214448	529.309937
6123.720941	0.249353	0.214448	753.478271
6123.721903	0.487093	0.214448	1222.062256
6123.722808	0.100042	0.214448	1312.599854
6123.723703	0.101499	0.214448	1403.441528
6123.724633	0.100968	0.214448	1497.341797
6123.725538	0.099657	0.214448	1587.531372
6123.726444	0.101704	0.214448	1679.675293
6123.727343	0.101616	0.214448	1771.028320
6123.728272	0.099584	0.214448	1863.541626
6123.729175	0.099880	0.214448	1953.733643
6123.730072	0.102594	0.214448	2045.760498
6123.730960	0.101587	0.214448	2135.969727
6124.774346	0.728430	0.204373	319.780823
6124.775287	0.254678	0.204373	559.432556
6124.776228	0.248756	0.204373	793.512085
6124.777147	0.487167	0.204373	1241.218384
6124.778036	0.101239	0.204373	1331.219849
6124.778972	0.100558	0.204373	1425.342041
6124.779887	0.102261	0.204373	1518.910645
6124.780815	0.102979	0.204373	1614.474731
6124.781704	0.101580	0.204373	1704.779053
6124.782657	0.100587	0.204373	1800.638672
6124.783553	0.101477	0.204373	1891.562134
6124.784442	0.101781	0.204373	1982.045410
6124.785374	0.099840	0.204373	2075.096436
6124.786279	0.100990	0.204373	2166.492432
6125.755863	0.700953	0.217706	315.429016
6125.756764	0.254978	0.217706	545.164185
6125.757691	0.249749	0.217706	776.681091
6125.758617	0.490316	0.217706	1230.713867
6125.759529	0.100459	0.217706	1322.332520
6125.760423	0.102257	0.217706	1413.750366
6125.761357	0.100521	0.217706	1507.637207
6125.762266	0.100389	0.217706	1598.891113
6125.763166	0.102887	0.217706	1691.489380
6125.764054	0.101038	0.217706	1781.210815
6125.765002	0.099686	0.217706	1875.713379
6125.765910	0.101360	0.217706	1967.748169
6125.766807	0.101517	0.217706	2058.809326
6125.767736	0.100811	0.217706	2152.462402
6126.806987	0.728555	0.205597	318.378387
6126.807939	0.255535	0.205597	561.647400
6126.808852	0.249664	0.205597	789.590881
6126.809758	0.489071	0.205597	1232.689209
6126.810647	0.100540	0.205597	1322.068848
6126.811588	0.100221	0.205597	1416.376709
6126.812495	0.100525	0.205597	1507.552734
6126.813395	0.102074	0.205597	1599.419312
6126.814327	0.100686	0.205597	1693.258667
6126.815229	0.099917	0.205597	1783.383789
6126.816138	0.101851	0.205597	1875.965942
6126.817028	0.101946	0.205597	1966.697754
6126.817972	0.099705	0.205597	2060.818848
6126.818872	0.099749	0.205597	2150.592529
6127.794649	0.677421	0.220261	300.774780
6127.795566	0.255311	0.220261	534.895203
6127.796477	0.249862	0.220261	762.519531
6127.797372	0.428928	0.220261	1146.410278
6127.798334	0.099492	0.220261	1242.121704
6127.799249	0.101642	0.220261	1335.124023
6127.800142	0.102448	0.220261	1426.609619
6127.801086	0.100635	0.220261	1521.608887
6127.801992	0.099734	0.220261	1611.967773
6127.802889	0.103315	0.220261	1704.641724
6127.803780	0.101082	0.220261	1794.705322
6127.804716	0.099316	0.220261	1887.665527
6127.805629	0.099635	0.220261	1978.632324
6127.806529	0.101671	0.220261	2070.136230
6128.838095	0.705546	0.203031	307.617920
6128.839015	0.254861	0.203031	542.089905
6128.839915	0.250009	0.203031	767.097595
6128.840871	0.468051	0.203031	1214.553955
6128.841772	0.099086	0.203031	1303.830200
6128.842670	0.102550	0.203031	1395.920166
6128.843559	0.102312	0.203031	1486.875488
6128.844498	0.099976	0.203031	1580.752563
6128.845404	0.100111	0.203031	1671.453247
6128.846300	0.102217	0.203031	1763.039551
6128.847189	0.101737	0.203031	1853.483765
6128.848129	0.099778	0.203031	1947.274902
6128.849037	0.100280	0.203031	2038.328735
6128.849936	0.102026	0.203031	2130.050537
6129.832919	0.682873	0.215604	303.195831
6129.833824	0.255022	0.215604	533.990723
6129.834778	0.249360	0.215604	771.880493
6129.835701	0.487116	0.215604	1221.488037
6129.836597	0.101213	0.215604	1312.175171
6129.837483	0.101580	0.215604	1402.174683
6129.838420	0.099752	0.215604	1495.642456
6129.839324	0.102184	0.215604	1588.016602
6129.840214	0.101550	0.215604	1678.396362
6129.841159	0.100602	0.215604	1773.465088
6129.842081	0.099972	0.215604	1865.639160
6129.842982	0.102301	0.215604	1957.812378
6129.843871	0.101206	0.215604	2047.784546
6129.844821	0.099294	0.215604	2142.114258
6130.869703	0.728481	0.203394	317.617920
6130.870680	0.255110	0.203394	566.860229
6130.871601	0.249078	0.203394	796.261353
6130.872511	0.481992	0.203394	1234.874268
6130.873397	0.101609	0.203394	1324.899780
6130.874367	0.099895	0.203394	1421.797974
6130.875268	0.100411	0.203394	1512.268555
6130.876171	0.101708	0.203394	1604.110718
6130.877068	0.100430	0.203394	1694.196167
6130.878019	0.099730	0.203394	1789.039551
6130.878922	0.100730	0.203394	1879.998779
6130.879822	0.101990	0.203394	1971.789551
6130.880756	0.099990	0.203394	2065.180420
6130.881661	0.099639	0.203394	2155.353516
6131.870155	0.702631	0.211467	309.860077
6131.871128	0.255366	0.211467	558.331421
6131.872033	0.249133	0.211467	783.797058
6131.872938	0.486075	0.211467	1223.695312
6131.873872	0.099565	0.211467	1316.689453
6131.874779	0.099686	0.211467	1407.104858
6131.875679	0.101503	0.211467	1498.457275
6131.876572	0.101583	0.211467	1589.171143
6131.877526	0.099745	0.211467	1684.327759
6131.878419	0.099891	0.211467	1773.530762
6131.879316	0.101704	0.211467	1864.759399
6131.880205	0.100741	0.211467	1954.318115
6131.881135	0.099701	0.211467	2047.040039
6131.882046	0.100909	0.211467	2138.968506
6132.902860	0.702715	0.204941	307.789124
6132.903815	0.255304	0.204941	551.604370
6132.904726	0.249540	0.204941	778.935120
6132.905631	0.495483	0.204941	1227.347656
6132.906518	0.101019	0.204941	1316.951782
6132.907461	0.099954	0.204941	1411.208008
6132.908368	0.100170	0.204941	1502.061890
6132.909271	0.102601	0.204941	1594.710937
6132.910158	0.101393	0.204941	1684.646362
6132.911112	0.099650	0.204941	1779.712158
6132.912018	0.100964	0.204941	1871.185913
6132.912921	0.102198	0.204941	1963.471191
6132.913867	0.100063	0.204941	2058.131348
6132.914769	0.099298	0.204941	2147.698242
6133.906949	0.715811	0.214278	357.189453
6133.907865	0.255344	0.214278	591.084778
6133.908764	0.249137	0.214278	815.058899
6133.909661	0.482139	0.214278	1247.537354
6133.910606	0.099320	0.214278	1341.394775
6133.911521	0.100327	0.214278	1433.194092
6133.912422	0.103528	0.214278	1526.472656
6133.913309	0.101686	0.214278	1616.667969
6133.914262	0.100001	0.214278	1711.969116
6133.915173	0.100789	0.214278	1803.787476
6133.916069	0.102341	0.214278	1895.485352
6133.917001	0.100228	0.214278	1988.898071
6133.917900	0.099470	0.214278	2078.321777
6133.918797	0.101807	0.214278	2169.642334
6134.937030	0.728459	0.206306	316.879883
6134.937989	0.255502	0.206306	561.906006
6134.938904	0.249357	0.206306	790.067383
6134.939826	0.481827	0.206306	1234.312256
6134.940721	0.100704	0.206306	1324.442627
6134.941680	0.101093	0.206306	1421.390381
6134.942581	0.101254	0.206306	1512.619873
6134.943469	0.101748	0.206306	1602.972168
6134.944401	0.100554	0.206306	1696.688721
6134.945312	0.101371	0.206306	1789.037598
6134.946214	0.101730	0.206306	1880.797852
6134.947102	0.101243	0.206306	1970.701294
6134.948028	0.099921	0.206306	2063.227783
6134.948930	0.101404	0.206306	2154.694092
6135.942613	0.714338	0.209694	312.880188
6135.943555	0.255363	0.209694	553.431702
6135.944467	0.249880	0.209694	781.322571
6135.945375	0.492755	0.209694	1228.744141
6135.946263	0.100975	0.209694	1318.410278
6135.947223	0.100309	0.209694	1414.706787
6135.948112	0.100869	0.209694	1504.379395
6135.949017	0.102905	0.209694	1597.508667
6135.949931	0.100818	0.209694	1689.656250
6135.950869	0.099873	0.209694	1783.337158
6135.951779	0.100649	0.209694	1874.928101
6135.952678	0.100781	0.209694	1965.530396
6135.953613	0.099492	0.209694	2058.555664
6135.954508	0.099382	0.209694	2147.502930
6136.971751	0.665413	0.203829	305.424377
6136.972657	0.255282	0.203829	536.709839
6136.973549	0.250078	0.203829	759.779541
6136.974500	0.485131	0.203829	1221.138794
6136.975406	0.100562	0.203829	1312.247559
6136.976330	0.101902	0.203829	1406.404907
6136.977222	0.101627	0.203829	1497.056396
6136.978180	0.101063	0.203829	1593.875000
6136.979088	0.102111	0.203829	1686.591431
6136.979982	0.102462	0.203829	1778.192627
6136.980917	0.100858	0.203829	1872.494995
6136.981833	0.101404	0.203829	1965.380859
6136.982746	0.102056	0.203829	2058.557617
6136.983635	0.101078	0.203829	2148.415771
6137.976848	0.554275	0.213682	282.680206
6137.977750	0.255450	0.213682	513.096497
6137.978655	0.248954	0.213682	738.399780
6137.979556	0.484559	0.213682	1174.987793
6137.980511	0.099569	0.213682	1270.076294
6137.981422	0.102096	0.213682	1363.085693
6137.982319	0.102836	0.213682	1455.329346
6137.983248	0.101375	0.213682	1549.506226
6137.984149	0.100020	0.213682	1639.623779
6137.985049	0.101825	0.213682	1731.266235
6137.985938	0.101763	0.213682	1821.733276
6137.986883	0.099379	0.213682	1915.646118
6137.987779	0.099730	0.213682	2005.004395
6137.988682	0.101466	0.213682	2096.628174
6139.008461	0.719722	0.201098	315.957825
6139.009359	0.254993	0.201098	544.941284
6139.010331	0.249199	0.201098	787.162903
6139.011264	0.457493	0.201098	1214.003540
6139.012158	0.101733	0.201098	1304.953247
6139.013097	0.100818	0.201098	1399.621216
6139.014003	0.100214	0.201098	1490.414795
6139.014907	0.102184	0.201098	1582.788940
6139.015805	0.102817	0.201098	1675.118896
6139.016741	0.099965	0.201098	1768.685791
6139.017644	0.100027	0.201098	1859.010010
6139.018546	0.101638	0.201098	1950.687622
6139.019436	0.101909	0.201098	2041.386841
6139.020382	0.099086	0.201098	2135.121826
6140.009417	0.714778	0.215926	314.502258
6140.010390	0.254897	0.215926	562.517456
6140.011297	0.248613	0.215926	788.009705
6140.012207	0.484893	0.215926	1229.261963
6140.013143	0.100005	0.215926	1322.866577
6140.014052	0.100342	0.215926	1414.077271
6140.014955	0.102198	0.215926	1506.362549
6140.015845	0.101565	0.215926	1596.755371
6140.016796	0.099932	0.215926	1691.790405
6140.017694	0.100375	0.215926	1781.927002
6140.018596	0.102122	0.215926	1874.040649
6140.019485	0.100840	0.215926	1963.687256
6140.020434	0.099265	0.215926	2057.889893
6140.021338	0.100642	0.215926	2148.870361
6141.046267	0.715320	0.204329	348.360748
6141.047192	0.255615	0.204329	584.804810
6141.048099	0.249210	0.204329	810.838501
6141.048999	0.484380	0.204329	1246.780396
6141.049951	0.099441	0.204329	1341.448120
6141.050854	0.100917	0.204329	1432.575928
6141.051753	0.102037	0.204329	1524.307495
6141.052640	0.100917	0.204329	1613.820679
6141.053581	0.099752	0.204329	1707.687500
6141.054493	0.100887	0.204329	1799.696899
6141.055390	0.101653	0.204329	1890.879517
6141.056328	0.099763	0.204329	1984.457397
6141.057233	0.099031	0.204329	2074.080322
6141.058140	0.101078	0.204329	2165.758057
6142.041061	0.663995	0.217461	302.117889
6142.041962	0.255110	0.217461	531.971863
6142.042855	0.249771	0.217461	755.016907
6142.043828	0.442885	0.217461	1185.943604
6142.044721	0.100840	0.217461	1275.993530
6142.045611	0.101777	0.217461	1366.575317
6142.046542	0.100668	0.217461	1460.296997
6142.047458	0.100745	0.217461	1552.579102
6142.048362	0.102341	0.217461	1645.095703
6142.049251	0.101276	0.217461	1735.129761
6142.050194	0.099562	0.217461	1829.016479
6142.051102	0.101536	0.217461	1921.210815
6142.051998	0.101316	0.217461	2011.989868
6142.052888	0.100316	0.217461	2101.271240
6143.084507	0.668027	0.207378	301.280334
6143.085404	0.255128	0.207378	530.130310
6143.086358	0.249357	0.207378	768.016602
6143.087285	0.469592	0.207378	1203.328613
6143.088178	0.100591	0.207378	1293.156250
6143.089067	0.101433	0.207378	1383.330322
6143.090028	0.099858	0.207378	1479.294189
6143.090938	0.101169	0.207378	1571.358398
6143.091842	0.102048	0.207378	1663.610107
6143.092778	0.100063	0.207378	1757.269531
6143.093677	0.099247	0.207378	1846.492432
6143.094581	0.101554	0.207378	1938.297241
6143.095471	0.101569	0.207378	2028.693359
6143.096415	0.099415	0.207378	2122.541504
6144.072697	0.716393	0.223193	346.734131
6144.073615	0.255667	0.223193	581.436035
6144.074523	0.249481	0.223193	807.964966
6144.075422	0.485548	0.223193	1244.472656
6144.076375	0.098990	0.223193	1338.810547
6144.077267	0.100686	0.223193	1428.622437
6144.078169	0.102605	0.223193	1521.172119
6144.079059	0.101360	0.223193	1611.382446
6144.080011	0.099811	0.223193	1706.402344
6144.080921	0.101565	0.223193	1798.826416
6144.081821	0.101700	0.223193	1890.356812
6144.082750	0.099935	0.223193	1983.196655
6144.083650	0.099540	0.223193	2072.782471
6144.084556	0.102532	0.223193	2165.676270
6145.122252	0.718257	0.205726	314.596497
6145.123194	0.255139	0.205726	554.937622
6145.124113	0.249371	0.205726	784.109863
6145.125022	0.488932	0.205726	1228.548950
6145.125907	0.100137	0.205726	1317.169922
6145.126868	0.099862	0.205726	1413.137329
6145.127764	0.102253	0.205726	1504.756348
6145.128653	0.102180	0.205726	1595.594482
6145.129586	0.100719	0.205726	1689.565308
6145.130502	0.100463	0.205726	1781.589111
6145.131414	0.101180	0.205726	1873.865601
6145.132300	0.101927	0.205726	1964.173340
6145.133254	0.099716	0.205726	2059.302002
6145.134156	0.100441	0.205726	2149.899414
6146.103759	0.700675	0.222553	310.399017
6146.104662	0.255249	0.222553	540.888916
6146.105579	0.249990	0.222553	770.129944
6146.106529	0.490521	0.222553	1236.125122
6146.107439	0.101422	0.222553	1328.419189
6146.108336	0.102253	0.222553	1420.140503
6146.109264	0.100144	0.222553	1513.074219
6146.110160	0.099767	0.222553	1602.465332
6146.111056	0.101136	0.222553	1693.083618
6146.111944	0.101177	0.222553	1782.928589
6146.112882	0.099624	0.222553	1876.375977
6146.113792	0.100602	0.222553	1967.923584
6146.114689	0.102371	0.222553	2059.750000
6146.115603	0.101532	0.222553	2152.550293
6147.159034	0.730115	0.201948	356.295990
6147.159961	0.255168	0.201948	592.837158
6147.160867	0.248782	0.201948	818.233398
6147.161773	0.485676	0.201948	1258.256104
6147.162723	0.099412	0.201948	1352.697144
6147.163626	0.100807	0.201948	1443.725708
6147.164525	0.102411	0.201948	1535.793091
6147.165414	0.101298	0.201948	1625.846680
6147.166349	0.099976	0.201948	1719.323853
6147.167258	0.100613	0.201948	1810.780884
6147.168154	0.103015	0.201948	1903.082397
6147.169088	0.099855	0.201948	1996.346680
6147.169991	0.099543	0.201948	2086.234375
6147.170888	0.101876	0.201948	2177.617432
6148.138945	0.733850	0.216426	317.757111
6148.139894	0.254875	0.216426	559.633911
6148.140821	0.249031	0.216426	790.485413
6148.141763	0.484860	0.216426	1247.223145
6148.142650	0.101327	0.216426	1337.100098
6148.143615	0.101609	0.216426	1435.152710
6148.144514	0.102964	0.216426	1527.717285
6148.145400	0.102297	0.216426	1618.352783
6148.146321	0.101342	0.216426	1711.688354
6148.147247	0.101455	0.216426	1805.635742
6148.148150	0.103345	0.216426	1898.956055
6148.149040	0.102484	0.216426	1990.166992
6148.149970	0.099990	0.216426	2083.157959
6148.150882	0.101759	0.216426	2175.962158
6149.191624	0.718938	0.207358	314.894836
6149.192577	0.255586	0.207358	558.468262
6149.193501	0.249360	0.207358	788.877197
6149.194407	0.488068	0.207358	1231.066528
6149.195332	0.100972	0.207358	1324.465332
6149.196241	0.100137	0.207358	1415.489624
6149.197151	0.101913	0.207358	1508.230347
6149.198039	0.102583	0.207358	1599.324097
6149.198973	0.100287	0.207358	1692.992065
6149.199871	0.099950	0.207358	1782.747070
6149.200772	0.101133	0.207358	1873.867676
6149.201660	0.101492	0.207358	1963.992310
6149.202591	0.099584	0.207358	2056.704834
6149.203496	0.100203	0.207358	2147.388184
6150.177241	0.705996	0.208840	313.462280
6150.178136	0.254747	0.208840	541.461121
6150.179099	0.249254	0.208840	781.492920
6150.180023	0.481472	0.208840	1226.373169
6150.180923	0.102004	0.208840	1318.177124
6150.181829	0.101034	0.208840	1409.713867
6150.182753	0.100272	0.208840	1502.365356
6150.183668	0.101023	0.208840	1594.801392
6150.184569	0.101667	0.208840	1686.403809
6150.185505	0.100305	0.208840	1780.289429
6150.186408	0.099635	0.208840	1870.259888
6150.187306	0.100869	0.208840	1960.840332
6150.188194	0.101462	0.208840	2050.938965
6150.189139	0.099097	0.208840	2144.585449
6151.221194	0.733927	0.213146	317.790405
6151.222139	0.254810	0.213146	558.585449
6151.223055	0.249166	0.213146	786.821777
6151.223969	0.491133	0.213146	1235.717163
6151.224861	0.100232	0.213146	1325.124023
6151.225823	0.099840	0.213146	1421.170166
6151.226731	0.100305	0.213146	1512.247314
6151.227625	0.101093	0.213146	1602.624023
6151.228572	0.100422	0.213146	1697.723999
6151.229477	0.099543	0.213146	1787.810791
6151.230364	0.101437	0.213146	1877.785156
6151.231253	0.101393	0.213146	1967.923340
6151.232192	0.099441	0.213146	2061.298340
6151.233096	0.099998	0.213146	2151.696045
6152.218637	0.694376	0.203358	350.660004
6152.219555	0.255721	0.203358	585.412231
6152.220460	0.249170	0.203358	810.911011
6152.221363	0.486057	0.203358	1249.820557
6152.222302	0.099265	0.203358	1343.030518
6152.223213	0.100686	0.203358	1434.755493
6152.224111	0.102147	0.203358	1526.483643
6152.225037	0.101514	0.203358	1620.485352
6152.225958	0.099642	0.203358	1712.255981
6152.226862	0.101287	0.203358	1803.819092
6152.227752	0.101796	0.203358	1894.417236
6152.228694	0.099437	0.203358	1988.087158
6152.229594	0.099851	0.203358	2077.953125
6152.230494	0.101257	0.203358	2169.084717
6153.248202	0.714166	0.220438	312.090668
6153.249132	0.255161	0.220438	549.390503
6153.250057	0.249760	0.220438	780.418091
6153.250960	0.493575	0.220438	1226.116699
6153.251846	0.101484	0.220438	1316.031860
6153.252786	0.100371	0.220438	1410.380737
6153.253698	0.101473	0.220438	1502.924438
6153.254620	0.102700	0.220438	1597.614014
6153.255521	0.101136	0.220438	1688.738037
6153.256477	0.100228	0.220438	1784.556274
6153.257381	0.101382	0.220438	1876.205444
6153.258273	0.101935	0.220438	1967.131348
6153.259205	0.100012	0.220438	2060.342773
6153.260116	0.100737	0.220438	2152.114502
6154.261493	0.704865	0.204308	339.744690
6154.262415	0.255743	0.204308	575.540100
6154.263336	0.249269	0.204308	805.116638
6154.264238	0.479733	0.204308	1237.835449
6154.265187	0.099675	0.204308	1332.427246
6154.266094	0.100507	0.204308	1423.586670
6154.266991	0.102964	0.204308	1515.945312
6154.267882	0.101561	0.204308	1606.436401
6154.268828	0.099961	0.204308	1700.999512
6154.269734	0.100573	0.204308	1792.118164
6154.270634	0.101744	0.204308	1883.688110
6154.271574	0.100331	0.204308	1977.999023
6154.272478	0.099239	0.204308	2067.711426
6154.273393	0.102195	0.204308	2161.219727
6155.276759	0.714199	0.220857	318.532867
6155.277656	0.254656	0.220857	546.959106
6155.278613	0.249144	0.220857	785.390137
6155.279544	0.471823	0.220857	1224.656860
6155.280434	0.102506	0.220857	1315.887329
6155.281348	0.101078	0.220857	1408.272461
6155.282265	0.100217	0.220857	1500.171753
6155.283170	0.101320	0.220857	1591.865967
6155.284062	0.102092	0.220857	1682.932251
6155.284991	0.100228	0.220857	1776.044312
6155.285903	0.099562	0.220857	1866.844604
6155.286807	0.101495	0.220857	1958.596436
6155.287700	0.100825	0.220857	2048.633301
6155.288650	0.099283	0.220857	2142.952637
6156.302288	0.695654	0.206109	306.087921
6156.303191	0.255231	0.206109	536.561279
6156.304088	0.250587	0.206109	761.337952
6156.305060	0.487980	0.206109	1235.654297
6156.305964	0.099796	0.206109	1325.869995
6156.306868	0.101353	0.206109	1417.492676
6156.307757	0.101700	0.206109	1507.904419
6156.308699	0.099734	0.206109	1601.853760
6156.309600	0.100529	0.206109	1692.429932
6156.310504	0.101016	0.206109	1783.748047
6156.311433	0.100096	0.206109	1876.737671
6156.312334	0.099122	0.206109	1966.046875
6156.313230	0.101440	0.206109	2056.937500
6156.314118	0.101027	0.206109	2146.649170
6157.306321	0.700891	0.218951	312.597443
6157.307218	0.255132	0.218951	541.450684
6157.308187	0.249620	0.218951	783.332764
6157.309103	0.489313	0.218951	1231.543213
6157.310003	0.101565	0.218951	1322.951660
6157.310888	0.101781	0.218951	1413.027832
6157.311823	0.099884	0.218951	1506.419434
6157.312732	0.100444	0.218951	1597.723389
6157.313629	0.102242	0.218951	1689.434814
6157.314562	0.100536	0.218951	1783.234741
6157.315469	0.099606	0.218951	1873.577148
6157.316377	0.100975	0.218951	1965.262695
6157.317276	0.101957	0.218951	2056.921875
6157.318222	0.099624	0.218951	2151.166260
6158.340602	0.577328	0.208075	280.581360
6158.341504	0.255439	0.208075	510.987732
6158.342466	0.249031	0.208075	750.555298
6158.343375	0.462231	0.208075	1170.723633
6158.344306	0.101451	0.208075	1265.174927
6158.345192	0.100953	0.208075	1354.619629
6158.346155	0.101056	0.208075	1451.936523
6158.347060	0.102330	0.208075	1544.545410
6158.347949	0.102177	0.208075	1635.380371
6158.348880	0.100221	0.208075	1728.686035
6158.349796	0.100862	0.208075	1821.075439
6158.350723	0.101473	0.208075	1915.141235
6158.351615	0.101708	0.208075	2005.864502
6158.352567	0.100789	0.208075	2101.815186
6159.341060	0.721154	0.216570	358.413330
6159.341984	0.255439	0.216570	594.439331
6159.342896	0.248976	0.216570	821.505249
6159.343802	0.481619	0.216570	1257.851807
6159.344760	0.099126	0.216570	1352.814453
6159.345654	0.100345	0.216570	1442.523315
6159.346553	0.102638	0.216570	1534.794800
6159.347442	0.101199	0.216570	1624.760498
6159.348369	0.099844	0.216570	1717.315674
6159.349278	0.100232	0.216570	1808.426514
6159.350176	0.101946	0.216570	1899.973877
6159.351110	0.100261	0.216570	1993.617920
6159.352013	0.099760	0.216570	2083.700684
6159.352917	0.101920	0.216570	2175.836426
6160.376277	0.720088	0.206947	320.439117
6160.377175	0.254828	0.206947	549.274536
6160.378117	0.249503	0.206947	784.306519
6160.379041	0.483259	0.206947	1230.838135
6160.379933	0.101283	0.206947	1321.182495
6160.380823	0.102861	0.206947	1412.729126
6160.381765	0.100056	0.206947	1506.982056
6160.382672	0.102129	0.206947	1599.613037
6160.383572	0.102308	0.206947	1691.690552
6160.384461	0.101257	0.206947	1781.708252
6160.385401	0.099990	0.206947	1875.699097
6160.386310	0.100829	0.206947	1967.352539
6160.387202	0.101605	0.206947	2057.984375
6160.388135	0.100082	0.206947	2151.360596
6161.376711	0.721681	0.209058	313.209503
6161.377670	0.254703	0.209058	557.470032
6161.378588	0.249075	0.209058	786.120605
6161.379501	0.494561	0.209058	1237.654419
6161.380393	0.101151	0.209058	1327.881226
6161.381347	0.099961	0.209058	1423.243896
6161.382252	0.100375	0.209058	1514.083008
6161.383148	0.102202	0.209058	1605.656128
6161.384058	0.101301	0.209058	1697.840332
6161.384966	0.099771	0.209058	1788.432007
6161.385873	0.100741	0.209058	1879.804077
6161.386769	0.101891	0.209058	1971.098267
6161.387702	0.100155	0.209058	2064.542969
6161.388604	0.099617	0.209058	2154.397217
6162.408412	0.678406	0.204510	303.925781
6162.409309	0.254875	0.204510	532.549072
6162.410201	0.249884	0.204510	755.445618
6162.411168	0.486251	0.204510	1225.650635
6162.412078	0.099833	0.204510	1316.498413
6162.412984	0.101858	0.204510	1408.781738
6162.413871	0.100979	0.204510	1498.350098
6162.414821	0.099749	0.204510	1593.111206
6162.415726	0.101609	0.204510	1685.067261
6162.416621	0.102246	0.204510	1776.577515
6162.417561	0.100258	0.204510	1870.819580
6162.418468	0.099448	0.204510	1961.019165
6162.419365	0.101796	0.204510	2052.329834
6162.420249	0.101675	0.204510	2142.210449
6163.413957	0.719363	0.200091	312.922821
6163.414916	0.255157	0.200091	557.618835
6163.415838	0.249229	0.200091	787.407532
6163.416767	0.477195	0.200091	1230.721558
6163.417658	0.101279	0.200091	1320.961426
6163.418605	0.101078	0.200091	1416.682129
6163.419505	0.102202	0.200091	1508.664062
6163.420421	0.102462	0.200091	1602.519409
6163.421321	0.102480	0.200091	1694.751831
6163.422276	0.101975	0.200091	1792.138062
6163.423176	0.100789	0.200091	1882.847778
6163.424067	0.101199	0.200091	1973.015869
6163.424997	0.099668	0.200091	2065.707031
6163.425903	0.101598	0.200091	2157.754639
6164.439506	0.700265	0.207048	308.116547
6164.440401	0.254912	0.207048	536.262878
6164.441368	0.249104	0.207048	777.146484
6164.442292	0.487668	0.207048	1227.752197
6164.443180	0.101865	0.207048	1318.208496
6164.444115	0.100118	0.207048	1411.819214
6164.445019	0.100038	0.207048	1502.253418
6164.445916	0.102034	0.207048	1593.777588
6164.446805	0.101396	0.207048	1683.919067
6164.447733	0.099397	0.207048	1776.159424
6164.448642	0.100818	0.207048	1867.802856
6164.449544	0.102180	0.207048	1959.969360
6164.450460	0.100353	0.207048	2051.892578
6164.451376	0.099371	0.207048	2142.916748
6165.450706	0.700997	0.199571	310.541840
6165.451689	0.255282	0.199571	561.484009
6165.452606	0.248529	0.199571	789.385132
6165.453507	0.484475	0.199571	1225.897217
6165.454453	0.099631	0.199571	1320.148437
6165.455365	0.100518	0.199571	1411.820435
6165.456261	0.101488	0.199571	1502.753662
6165.457153	0.101356	0.199571	1593.163330
6165.458078	0.099664	0.199571	1685.352783
6165.458984	0.101935	0.199571	1777.705688
6165.459874	0.101620	0.199571	1868.147339
6165.460786	0.100104	0.199571	1959.442017
6165.461712	0.099335	0.199571	2051.426025
6165.462615	0.101792	0.199571	2143.344238
6166.472659	0.714360	0.208969	314.318542
6166.473589	0.255201	0.208969	551.655823
6166.474524	0.249485	0.208969	784.924194
6166.475449	0.490096	0.208969	1238.263428
6166.476346	0.100756	0.208969	1328.641235
6166.477274	0.100294	0.208969	1421.714233
6166.478180	0.100045	0.208969	1512.355103
6166.479090	0.101646	0.208969	1604.852539
6166.479981	0.100829	0.208969	1694.691040
6166.480918	0.099558	0.208969	1787.977051
6166.481826	0.100745	0.208969	1879.453125
6166.482716	0.101100	0.208969	1969.432007
6166.483648	0.100294	0.208969	2062.906250
6166.484551	0.099320	0.208969	2152.592285
6167.486991	0.721102	0.202931	364.877777
6167.487906	0.255472	0.202931	598.635010
6167.488807	0.249159	0.202931	823.127197
6167.489706	0.483362	0.202931	1257.669434
6167.490646	0.099452	0.202931	1351.154175
6167.491553	0.100752	0.202931	1442.536133
6167.492455	0.101364	0.202931	1533.966064
6167.493345	0.100950	0.202931	1623.811279
6167.494286	0.099697	0.202931	1717.626465
6167.495192	0.100833	0.202931	1808.980713
6167.496082	0.102026	0.202931	1899.784180
6167.497018	0.100085	0.202931	1993.464111
6167.497916	0.099082	0.202931	2082.439697
6167.498816	0.101627	0.202931	2173.904297
6168.506314	0.718601	0.210593	315.465851
6168.507291	0.255601	0.210593	565.187622
6168.508195	0.249229	0.210593	790.490173
6168.509102	0.482274	0.210593	1227.912842
6168.510023	0.100386	0.210593	1320.368164
6168.510949	0.099939	0.210593	1412.911621
6168.511860	0.101495	0.210593	1505.373901
6168.512757	0.102568	0.210593	1597.377686
6168.513689	0.099965	0.210593	1690.544678
6168.514590	0.099573	0.210593	1780.259766
6168.515488	0.102242	0.210593	1872.073486
6168.516374	0.101122	0.210593	1961.667480
6168.517331	0.099357	0.210593	2056.751953
6168.518232	0.100243	0.210593	2147.070801
6169.521641	0.660044	0.207229	310.220673
6169.522538	0.255037	0.207229	538.988525
6169.523493	0.249346	0.207229	777.113647
6169.524403	0.475851	0.207229	1210.137939
6169.525304	0.101019	0.207229	1301.156372
6169.526194	0.102576	0.207229	1392.448730
6169.527131	0.099902	0.207229	1486.057251
6169.528040	0.100023	0.207229	1576.978271
6169.528945	0.101539	0.207229	1668.871338
6169.529836	0.100031	0.207229	1757.998535
6169.530786	0.099280	0.207229	1852.314331
6169.531697	0.100459	0.207229	1943.832520
6169.532588	0.101250	0.207229	2034.046265
6169.533537	0.099510	0.207229	2128.481689
6170.541525	0.694823	0.211853	309.196228
6170.542424	0.254872	0.211853	538.325989
6170.543357	0.249507	0.211853	771.115845
6170.544259	0.496117	0.211853	1218.613281
6170.545219	0.100697	0.211853	1315.282471
6170.546139	0.101243	0.211853	1408.425781
6170.547028	0.101506	0.211853	1498.664917
6170.547973	0.100580	0.211853	1593.712891
6170.548872	0.101455	0.211853	1684.921021
6170.549783	0.101722	0.211853	1777.590088
6170.550682	0.101484	0.211853	1868.824585
6170.551624	0.101052	0.211853	1964.015747
6170.552532	0.101074	0.211853	2055.791016
6170.553456	0.102111	0.211853	2150.141113
6171.556302	0.715631	0.205916	317.740204
6171.557281	0.255458	0.205916	567.833374
6171.558200	0.248800	0.205916	796.480591
6171.559101	0.483168	0.205916	1231.814697
6171.560042	0.099584	0.205916	1325.522949
6171.560942	0.100012	0.205916	1415.533936
6171.561842	0.101906	0.205916	1507.248901
6171.562734	0.101265	0.205916	1597.576904
6171.563682	0.099536	0.205916	1691.937134
6171.564595	0.100327	0.205916	1783.535767
6171.565496	0.101067	0.205916	1874.597046
6171.566413	0.100386	0.205916	1966.650757
6171.567335	0.099283	0.205916	2058.190186
6171.568244	0.100931	0.205916	2149.936768
6172.577753	0.664893	0.212333	299.866547
6172.578656	0.255454	0.212333	530.541626
6172.579554	0.250034	0.212333	755.072327
6172.580515	0.487218	0.212333	1223.288818
6172.581426	0.100814	0.212333	1315.130615
6172.582312	0.103055	0.212333	1406.437744
6172.583241	0.100232	0.212333	1499.553223
6172.584152	0.100063	0.212333	1590.711060
6172.585057	0.101968	0.212333	1682.991943
6172.585944	0.101792	0.212333	1773.281494
6172.586887	0.099617	0.212333	1867.220093
6172.587785	0.100759	0.212333	1957.701904
6172.588682	0.102089	0.212333	2049.275391
6172.589589	0.100591	0.212333	2140.511230
6173.589450	0.717554	0.205702	315.006104
6173.590437	0.255337	0.205702	567.023621
6173.591353	0.248613	0.205702	794.753418
6173.592268	0.485035	0.205702	1238.560791
6173.593191	0.101682	0.205702	1332.413452
6173.594082	0.102004	0.205702	1423.299316
6173.595035	0.101675	0.205702	1520.195435
6173.595950	0.101678	0.205702	1613.231201
6173.596840	0.101389	0.205702	1703.467529
6173.597786	0.100829	0.205702	1798.851562
6173.598681	0.101880	0.205702	1890.034058
6173.599596	0.102257	0.205702	1983.599243
6173.600491	0.101510	0.205702	2074.450684
6173.601441	0.101539	0.205702	2170.913086
6174.615500	0.728397	0.206202	316.852783
6174.616432	0.255103	0.206202	554.608337
6174.617344	0.249412	0.206202	782.071777
6174.618258	0.487903	0.206202	1228.014893
6174.619144	0.103132	0.206202	1319.390137
6174.620097	0.100016	0.206202	1414.705322
6174.621001	0.101389	0.206202	1506.361084
6174.621895	0.102587	0.206202	1598.073608
6174.622821	0.101462	0.206202	1692.027832
6174.623735	0.099664	0.206202	1783.120972
6174.624647	0.102198	0.206202	1876.325928
6174.625546	0.101045	0.206202	1967.165283
6174.626468	0.099631	0.206202	2059.025391
6174.627371	0.099635	0.206202	2148.995850
6175.622601	0.719821	0.206721	315.281403
6175.623575	0.255714	0.206721	564.346924
6175.624491	0.249192	0.206721	792.606689
6175.625399	0.486522	0.206721	1234.368896
6175.626336	0.099595	0.206721	1327.689209
6175.627239	0.100393	0.206721	1418.344116
6175.628131	0.103147	0.206721	1510.351196
6175.629025	0.101276	0.206721	1600.891602
6175.629961	0.099624	0.206721	1694.139648
6175.630872	0.100074	0.206721	1785.307495
6175.631774	0.101195	0.206721	1876.585449
6175.632700	0.100012	0.206721	1969.196777
6175.633617	0.099188	0.206721	2060.152344
6175.634524	0.100811	0.206721	2151.587402
6176.652760	0.719473	0.209247	318.726379
6176.653657	0.255070	0.209247	547.523804
6176.654611	0.249814	0.209247	785.846802
6176.655539	0.475291	0.209247	1226.916382
6176.656436	0.101429	0.209247	1317.898560
6176.657371	0.102997	0.209247	1414.200562
6176.658283	0.102184	0.209247	1507.392212
6176.659200	0.102993	0.209247	1601.836914
6176.660099	0.102733	0.209247	1694.193970
6176.661054	0.101451	0.209247	1791.080078
6176.661968	0.101122	0.209247	1883.505371
6176.662883	0.101495	0.209247	1976.373657
6176.663772	0.100737	0.209247	2065.929199
6176.664729	0.100979	0.209247	2162.566162
6177.655774	0.724644	0.206842	333.336060
6177.656696	0.255278	0.206842	568.702637
6177.657617	0.249404	0.206842	798.403992
6177.658527	0.479967	0.206842	1235.174072
6177.659457	0.099628	0.206842	1327.827881
6177.660369	0.100206	0.206842	1419.216064
6177.661274	0.101917	0.206842	1511.450439
6177.662160	0.102228	0.206842	1602.024292
6177.663108	0.099661	0.206842	1696.502563
6177.664016	0.100360	0.206842	1787.629517
6177.664909	0.101122	0.206842	1877.931274
6177.665824	0.100657	0.206842	1970.032227
6177.666743	0.099335	0.206842	2061.320801
6177.667655	0.100822	0.206842	2153.270020
6178.688968	0.718638	0.198379	313.326050
6178.689862	0.255029	0.198379	541.322266
6178.690842	0.249291	0.198379	785.627197
6178.691758	0.483739	0.198379	1228.732178
6178.692685	0.101602	0.198379	1322.916870
6178.693574	0.101404	0.198379	1413.064819
6178.694522	0.101598	0.198379	1509.379639
6178.695439	0.101591	0.198379	1602.538208
6178.696326	0.102327	0.198379	1693.302002
6178.697277	0.100895	0.198379	1789.252930
6178.698170	0.102810	0.198379	1881.062256
6178.699086	0.102440	0.198379	1974.897461
6178.699977	0.101920	0.198379	2065.708252
6178.700919	0.100697	0.198379	2160.564941
6179.690477	0.649270	0.217666	306.455475
6179.691377	0.255212	0.217666	536.146606
6179.692315	0.249437	0.217666	770.118774
6179.693249	0.486665	0.217666	1224.663940
6179.694162	0.100547	0.217666	1316.463257
6179.695063	0.102283	0.217666	1408.619995
6179.695989	0.100144	0.217666	1501.353394
6179.696892	0.099899	0.217666	1591.561890
6179.697801	0.101411	0.217666	1683.744629
6179.698688	0.101766	0.217666	1774.011353
6179.699628	0.099331	0.217666	1867.382568
6179.700535	0.099705	0.217666	1957.814697
6179.701431	0.101536	0.217666	2048.790527
6179.702359	0.099565	0.217666	2141.187256
6180.724198	0.687023	0.200933	312.595337
6180.725100	0.255337	0.200933	542.909241
6180.725994	0.250104	0.200933	766.502014
6180.726969	0.475261	0.200933	1229.881714
6180.727872	0.101759	0.200933	1321.770142
6180.728761	0.102964	0.200933	1413.305054
6180.729680	0.100891	0.200933	1506.023926
6180.730622	0.101049	0.200933	1601.211670
6180.731530	0.101371	0.200933	1693.256348
6180.732423	0.101671	0.200933	1784.048706
6180.733353	0.100042	0.200933	1877.087280
6180.734269	0.101195	0.200933	1969.781982
6180.735191	0.101517	0.200933	2063.380859
6180.736079	0.102198	0.200933	2154.133057
6181.727691	0.719429	0.216256	314.390350
6181.728588	0.254821	0.216256	542.964355
6181.729566	0.249141	0.216256	786.623901
6181.730493	0.478674	0.216256	1230.354980
6181.731388	0.102111	0.216256	1321.744019
6181.732335	0.099785	0.216256	1416.240601
6181.733231	0.099935	0.216256	1505.782593
6181.734126	0.103301	0.216256	1598.236816
6181.735013	0.102748	0.216256	1689.374146
6181.735946	0.099514	0.216256	1782.220825
6181.736847	0.100778	0.216256	1873.021484
6181.737750	0.101898	0.216256	1965.035522
6181.738641	0.100540	0.216256	2054.616211
6181.739588	0.099525	0.216256	2148.866455
6182.756825	0.686689	0.202153	309.010254
6182.757732	0.255253	0.202153	540.524414
6182.758630	0.250071	0.202153	765.088013
6182.759583	0.441522	0.202153	1185.858643
6182.760498	0.101030	0.202153	1278.301392
6182.761394	0.102568	0.202153	1370.202637
6182.762279	0.102839	0.202153	1461.215454
6182.763214	0.100258	0.202153	1554.956299
6182.764127	0.101873	0.202153	1647.965942
6182.765042	0.103367	0.202153	1742.546509
6182.765934	0.101367	0.202153	1832.966064
6182.766896	0.100693	0.202153	1929.833130
6182.767803	0.102338	0.202153	2022.653320
6182.768695	0.101887	0.202153	2113.536621
6183.767007	0.645315	0.209759	295.554230
6183.767911	0.255344	0.209759	526.385437
6183.768870	0.249467	0.209759	765.623840
6183.769791	0.482651	0.209759	1210.145752
6183.770689	0.102155	0.209759	1301.880493
6183.771573	0.101660	0.209759	1391.748047
6183.772517	0.100221	0.209759	1486.356567
6183.773424	0.101217	0.209759	1578.160400
6183.774329	0.101082	0.209759	1669.639160
6183.775262	0.101100	0.209759	1763.965332
6183.776170	0.099844	0.209759	1854.623413
6183.777077	0.101613	0.209759	1946.786011
6183.777975	0.101440	0.209759	2037.879517
6183.778913	0.099390	0.209759	2131.106934
6184.784861	0.715137	0.199643	321.096375
6184.785756	0.254879	0.199643	549.213196
6184.786709	0.249254	0.199643	786.752441
6184.787630	0.482827	0.199643	1231.436279
6184.788524	0.100825	0.199643	1321.573975
6184.789454	0.100671	0.199643	1415.198364
6184.790358	0.102056	0.199643	1507.456665
6184.791275	0.102887	0.199643	1601.803955
6184.792168	0.101689	0.199643	1692.612671
6184.793116	0.100294	0.199643	1787.691528
6184.794014	0.101975	0.199643	1879.265137
6184.794934	0.102426	0.199643	1973.496582
6184.795820	0.100492	0.199643	2062.532471
6184.796772	0.100616	0.199643	2158.319336
6185.807815	0.728156	0.213517	319.660278
6185.808785	0.255516	0.213517	567.511108
6185.809706	0.249104	0.213517	796.935913
6185.810626	0.479121	0.213517	1237.727295
6185.811519	0.100664	0.213517	1327.620361
6185.812469	0.099917	0.213517	1422.541504
6185.813375	0.101796	0.213517	1514.768311
6185.814270	0.102839	0.213517	1606.809570
6185.815212	0.099939	0.213517	1700.952026
6185.816112	0.099269	0.213517	1790.293945
6185.817016	0.102671	0.213517	1883.108398
6185.817908	0.100953	0.213517	1973.158813
6185.818845	0.099203	0.213517	2066.111816
6185.819744	0.100067	0.213517	2156.072266
6186.812887	0.686968	0.201009	307.761536
6186.813790	0.255198	0.201009	538.205078
6186.814686	0.250313	0.201009	762.485107
6186.815671	0.487870	0.201009	1243.036865
6186.816575	0.100265	0.201009	1333.676270
6186.817471	0.101927	0.201009	1425.003296
6186.818356	0.102100	0.201009	1515.361450
6186.819295	0.099675	0.201009	1608.956543
6186.820202	0.101814	0.201009	1701.301758
6186.821093	0.102839	0.201009	1792.931641
6186.822012	0.101155	0.201009	1885.892822
6186.822934	0.100192	0.201009	1978.269531
6186.823847	0.103074	0.201009	2072.375732
6186.824742	0.102195	0.201009	2163.840088
6187.850698	0.728350	0.207483	316.832092
6187.851641	0.254865	0.207483	557.169312
6187.852560	0.249148	0.207483	786.136292
6187.853471	0.492173	0.207483	1234.505737
6187.854362	0.102034	0.207483	1325.417725
6187.855312	0.100199	0.207483	1420.606689
6187.856206	0.100649	0.207483	1510.587280
6187.857109	0.102385	0.207483	1603.041138
6187.858002	0.102026	0.207483	1694.150635
6187.858942	0.099789	0.207483	1787.952148
6187.859839	0.101444	0.207483	1878.947510
6187.860730	0.101385	0.207483	1969.281982
6187.861669	0.100287	0.207483	2063.451416
6187.862578	0.099261	0.207483	2153.680176
6188.841480	0.715584	0.204421	354.929413
6188.842405	0.255209	0.204421	590.997498
6188.843317	0.248566	0.204421	817.689392
6188.844217	0.476565	0.204421	1246.597778
6188.845165	0.099437	0.204421	1340.864258
6188.846068	0.101301	0.204421	1432.339355
6188.846967	0.101675	0.204421	1523.744995
6188.847852	0.101752	0.204421	1613.795288
6188.848788	0.099675	0.204421	1707.091309
6188.849701	0.100305	0.204421	1798.669922
6188.850598	0.101854	0.204421	1890.033203
6188.851536	0.100532	0.204421	1984.332397
6188.852449	0.099294	0.204421	2074.988281
6188.853347	0.100898	0.204421	2165.594971
6189.889031	0.718033	0.205722	358.298676
6189.889954	0.255055	0.205722	593.714417
6189.890883	0.248470	0.205722	824.543457
6189.891781	0.484948	0.205722	1260.026367
6189.892729	0.100232	0.205722	1355.046265
6189.893630	0.102231	0.205722	1447.156738
6189.894518	0.102898	0.205722	1538.530151
6189.895431	0.101572	0.205722	1631.265625
6189.896371	0.101367	0.205722	1726.550781
6189.897271	0.103264	0.205722	1819.488525
6189.898165	0.101949	0.205722	1910.631348
6189.899098	0.099873	0.205722	2003.812866
6189.900014	0.101191	0.205722	2096.504150
6189.900934	0.101169	0.205722	2189.580078
6190.873049	0.677014	0.206460	306.010406
6190.873946	0.254821	0.206460	534.584473
6190.874903	0.249020	0.206460	772.896423
6190.875819	0.490107	0.206460	1221.834839
6190.876715	0.101902	0.206460	1313.138916
6190.877604	0.101711	0.206460	1403.560425
6190.878539	0.100342	0.206460	1497.380005
6190.879444	0.101082	0.206460	1588.858765
6190.880342	0.102015	0.206460	1680.468628
6190.881271	0.100558	0.206460	1773.886841
6190.882177	0.099441	0.206460	1863.980347
6190.883077	0.101642	0.206460	1955.458008
6190.883963	0.101426	0.206460	2045.321289
6190.884920	0.099071	0.206460	2140.132324
6191.926732	0.718074	0.199966	313.798218
6191.927624	0.254443	0.199966	540.761719
6191.928594	0.249148	0.199966	782.435242
6191.929521	0.492682	0.199966	1239.151367
6191.930414	0.102202	0.199966	1330.417847
6191.931355	0.100459	0.199966	1424.949707
6191.932259	0.100012	0.199966	1515.360718
6191.933159	0.102982	0.199966	1608.044678
6191.934047	0.101580	0.199966	1698.247314
6191.934989	0.099500	0.199966	1791.975830
6191.935895	0.100276	0.199966	1882.825806
6191.936794	0.102404	0.199966	1974.886597
6191.937715	0.100291	0.199966	2067.254150
6191.938624	0.099320	0.199966	2157.536133
6192.906697	0.719528	0.210750	312.274994
6192.907635	0.254956	0.210750	551.423767
6192.908569	0.249207	0.210750	784.182678
6192.909487	0.488181	0.210750	1232.333008
6192.910377	0.101440	0.210750	1322.614990
6192.911325	0.100770	0.210750	1418.145142
6192.912229	0.100375	0.210750	1508.883911
6192.913131	0.101993	0.210750	1600.881958
6192.914041	0.100920	0.210750	1692.719482
6192.914943	0.101100	0.210750	1783.911499
6192.915891	0.100671	0.210750	1879.348022
6192.916803	0.100931	0.210750	1971.397461
6192.917726	0.101136	0.210750	2064.746338
6192.918617	0.100759	0.210750	2154.522949
6193.961433	0.689788	0.198218	304.886108
6193.962357	0.255095	0.198218	540.594116
6193.963267	0.249434	0.198218	767.578674
6193.964201	0.417407	0.198218	1157.437012
6193.965120	0.099148	0.198218	1248.553955
6193.966025	0.101521	0.198218	1340.430420
6193.966914	0.101990	0.198218	1431.099365
6193.967849	0.099869	0.198218	1524.477295
6193.968753	0.099858	0.198218	1614.749268
6193.969647	0.101287	0.198218	1705.299561
6193.970539	0.100796	0.198218	1795.209473
6193.971473	0.099419	0.198218	1888.066772
6193.972380	0.100107	0.198218	1978.864258
6193.973278	0.101298	0.198218	2069.829590
6194.942419	0.692670	0.212035	309.623352
6194.943321	0.255315	0.212035	539.917419
6194.944263	0.250082	0.212035	775.494507
6194.945185	0.490752	0.212035	1227.967773
6194.946088	0.100917	0.212035	1319.095581
6194.946976	0.102118	0.212035	1409.776245
6194.947915	0.100170	0.212035	1503.835571
6194.948822	0.100151	0.212035	1594.672852
6194.949720	0.101777	0.212035	1686.068848
6194.950608	0.101525	0.212035	1776.222778
6194.951560	0.099357	0.212035	1870.810303
6194.952466	0.100748	0.212035	1962.088257
6194.953362	0.100887	0.212035	2052.483398
6194.954288	0.099481	0.212035	2144.603027
6195.995128	0.709351	0.197134	343.325684
6195.996039	0.255564	0.197134	576.144470
6195.996962	0.249280	0.197134	806.229736
6195.997872	0.484138	0.197134	1246.795532
6195.998833	0.100148	0.197134	1343.037476
6195.999734	0.102484	0.197134	1435.375732
6196.000623	0.102147	0.197134	1526.184570
6196.001550	0.100620	0.197134	1619.459473
6196.002469	0.101041	0.197134	1712.316406
6196.003367	0.102521	0.197134	1804.380005
6196.004257	0.102206	0.197134	1895.343140
6196.005188	0.099697	0.197134	1988.161255
6196.006094	0.100800	0.197134	2079.485596
6196.007008	0.100825	0.197134	2171.639893
6196.979160	0.700781	0.213690	311.847656
6196.980056	0.255264	0.213690	540.563904
6196.981011	0.249796	0.213690	779.119202
6196.981934	0.486145	0.213690	1227.831055
6196.982839	0.101986	0.213690	1320.128418
6196.983727	0.101074	0.213690	1409.882324
6196.984674	0.100042	0.213690	1504.621582
6196.985585	0.101221	0.213690	1596.833618
6196.986476	0.102294	0.213690	1687.977295
6196.987413	0.100543	0.213690	1782.186279
6196.988310	0.099269	0.213690	1871.230347
6196.989213	0.102411	0.213690	1963.707397
6196.990104	0.101792	0.213690	2054.404053
6196.991046	0.099452	0.213690	2148.087646
6198.027739	0.696372	0.193053	309.189209
6198.028654	0.254927	0.193053	542.447205
6198.029560	0.249342	0.193053	768.351074
6198.030504	0.434114	0.193053	1178.154541
6198.031426	0.099514	0.193053	1269.906616
6198.032334	0.101536	0.193053	1362.100952
6198.033237	0.102191	0.193053	1454.379517
6198.034182	0.099880	0.193053	1548.766479
6198.035085	0.100653	0.193053	1639.656250
6198.035985	0.102286	0.193053	1731.713989
6198.036872	0.101781	0.193053	1821.993774
6198.037817	0.099419	0.193053	1915.944702
6198.038717	0.100074	0.193053	2006.011719
6198.039614	0.102030	0.193053	2097.532715
6199.015376	0.695398	0.209380	310.147491
6199.016275	0.255256	0.209380	539.622925
6199.017219	0.249606	0.209380	775.250732
6199.018135	0.491320	0.209380	1225.299438
6199.019034	0.101290	0.209380	1316.359375
6199.019921	0.101514	0.209380	1406.401978
6199.020858	0.099891	0.209380	1500.000122
6199.021766	0.100162	0.209380	1590.947510
6199.022669	0.102089	0.209380	1683.133545
6199.023556	0.101785	0.209380	1773.416504
6199.024504	0.099686	0.209380	1867.919067
6199.025414	0.100961	0.209380	1959.793335
6199.026314	0.101576	0.209380	2051.211670
6199.027250	0.099939	0.209380	2144.754639
6200.061910	0.692494	0.194910	309.544769
6200.062817	0.255436	0.194910	541.225037
6200.063764	0.249712	0.194910	777.702271
6200.064685	0.495432	0.194910	1233.995239
6200.065587	0.101697	0.194910	1325.725708
6200.066478	0.101979	0.194910	1416.588745
6200.067434	0.099917	0.194910	1512.109375
6200.068338	0.101210	0.194910	1603.602905
6200.069233	0.102059	0.194910	1694.946045
6200.070121	0.100616	0.194910	1784.293457
6200.071085	0.099452	0.194910	1880.165039
6200.071994	0.101378	0.194910	1972.317749
6200.072892	0.101880	0.194910	2063.805908
6200.073824	0.099950	0.194910	2156.959229
6201.050618	0.729576	0.209863	356.033295
6201.051537	0.255447	0.209863	590.788879
6201.052443	0.249188	0.209863	816.553467
6201.053340	0.489518	0.209863	1255.651001
6201.054275	0.099331	0.209863	1348.525513
6201.055193	0.101027	0.209863	1441.267944
6201.056088	0.102275	0.209863	1532.804443
6201.056974	0.101327	0.209863	1622.580078
6201.057928	0.100060	0.209863	1718.037109
6201.058834	0.101495	0.209863	1809.991943
6201.059728	0.101104	0.209863	1900.378540
6201.060651	0.100565	0.209863	1993.200195
6201.061552	0.099825	0.209863	2083.142822
6201.062452	0.101935	0.209863	2174.884277
6202.096590	0.715510	0.196868	316.255524
6202.097566	0.255659	0.196868	565.778870
6202.098475	0.248939	0.196868	792.064575
6202.099385	0.482157	0.196868	1230.827393
6202.100314	0.099690	0.196868	1323.439331
6202.101216	0.100250	0.196868	1413.864990
6202.102116	0.102257	0.196868	1505.896362
6202.103006	0.101290	0.196868	1596.044678
6202.103944	0.099587	0.196868	1689.457642
6202.104839	0.100485	0.196868	1779.391357
6202.105739	0.101455	0.196868	1870.700928
6202.106649	0.100345	0.196868	1962.015259
6202.107575	0.099521	0.196868	2054.172119
6202.108486	0.101309	0.196868	2146.464355
6203.085273	0.700961	0.211656	313.329437
6203.086169	0.254747	0.211656	541.583008
6203.087142	0.249031	0.211656	783.889954
6203.088062	0.480293	0.211656	1225.759521
6203.088961	0.100800	0.211656	1316.378296
6203.089855	0.100887	0.211656	1406.571655
6203.090796	0.100096	0.211656	1500.762451
6203.091712	0.101038	0.211656	1593.312866
6203.092612	0.101913	0.211656	1685.034424
6203.093546	0.100177	0.211656	1778.599731
6203.094450	0.100056	0.211656	1869.050537
6203.095352	0.101803	0.211656	1960.876831
6203.096241	0.101737	0.211656	2051.321045
6203.097182	0.099518	0.211656	2144.967285
6204.132306	0.734451	0.196965	323.158295
6204.133208	0.254843	0.196965	553.026245
6204.134150	0.249573	0.196965	788.123779
6204.135083	0.452699	0.196965	1210.491943
6204.135992	0.100679	0.196965	1302.008911
6204.136882	0.100818	0.196965	1391.736816
6204.137831	0.099763	0.196965	1486.412109
6204.138742	0.100726	0.196965	1578.173828
6204.139665	0.101572	0.196965	1671.925049
6204.140555	0.100155	0.196965	1761.062988
6204.141516	0.100452	0.196965	1857.597046
6204.142409	0.100162	0.196965	1947.041992
6204.143303	0.101067	0.196965	2037.395752
6204.144243	0.099540	0.196965	2130.963135
6205.119440	0.728987	0.211720	321.483185
6205.120410	0.255568	0.211720	569.383789
6205.121322	0.249141	0.211720	796.600037
6205.122231	0.480674	0.211720	1233.532471
6205.123163	0.100331	0.211720	1327.040771
6205.124072	0.099987	0.211720	1417.928589
6205.124966	0.101675	0.211720	1508.825806
6205.125855	0.101840	0.211720	1599.361206
6205.126812	0.099902	0.211720	1694.967773
6205.127713	0.099943	0.211720	1785.016113
6205.128611	0.101785	0.211720	1876.418701
6205.129496	0.100946	0.211720	1965.755981
6205.130432	0.099489	0.211720	2058.877197
6205.131336	0.100452	0.211720	2149.685547
6206.168535	0.677648	0.198596	303.586182
6206.169434	0.254663	0.198596	532.528320
6206.170365	0.249353	0.198596	764.675964
6206.171292	0.490785	0.198596	1219.633545
6206.172187	0.100690	0.198596	1309.750854
6206.173075	0.102488	0.198596	1400.760010
6206.174026	0.099851	0.198596	1495.718384
6206.174926	0.102008	0.198596	1587.525635
6206.175814	0.102927	0.198596	1678.925049
6206.176733	0.100532	0.198596	1771.314209
6206.177650	0.099976	0.198596	1862.991821
6206.178554	0.101217	0.198596	1954.492065
6206.179443	0.102052	0.198596	2045.216309
6206.180372	0.099591	0.198596	2137.736328
6207.152586	0.714965	0.217211	315.299377
6207.153561	0.255498	0.217211	564.409973
6207.154474	0.248950	0.217211	791.701538
6207.155383	0.489792	0.217211	1236.922852
6207.156320	0.100671	0.217211	1331.251953
6207.157223	0.099855	0.217211	1421.420776
6207.158119	0.101514	0.217211	1512.377075
6207.159011	0.102290	0.217211	1603.619751
6207.159938	0.099844	0.217211	1696.174927
6207.160844	0.100009	0.217211	1786.782715
6207.161753	0.102389	0.217211	1879.854248
6207.162647	0.101393	0.217211	1970.499390
6207.163586	0.099485	0.217211	2063.915771
6207.164493	0.100657	0.217211	2155.211426
6208.204259	0.673634	0.200683	307.177124
6208.205164	0.255472	0.200683	538.379639
6208.206088	0.249767	0.200683	769.164185
6208.207028	0.492473	0.200683	1232.088867
6208.207938	0.101382	0.200683	1324.346313
6208.208837	0.102378	0.200683	1416.384033
6208.209779	0.100144	0.200683	1510.719727
6208.210678	0.100060	0.200683	1600.673462
6208.211573	0.102422	0.200683	1692.341064
6208.212462	0.101448	0.200683	1782.528076
6208.213400	0.099825	0.200683	1876.164307
6208.214309	0.100565	0.200683	1967.578125
6208.215208	0.102759	0.200683	2059.958252
6208.216135	0.100243	0.200683	2152.883545
