time (s)	coil I (A)	last det (V)	int current (uC)
4244.666830	0.707776	0.234195	310.713623
4244.667735	0.417733	0.234195	688.762146
4244.668624	0.099269	0.234195	777.012085
4244.669607	0.098687	0.234195	874.020935
4244.670503	0.099188	0.234195	962.893616
4244.671406	0.099998	0.234195	1053.191406
4244.672296	0.099053	0.234195	1141.348389
4244.673235	0.098654	0.234195	1233.984131
4244.674151	0.099734	0.234195	1325.340332
4244.675039	0.100148	0.234195	1414.271484
4244.675992	0.098749	0.234195	1508.379028
4244.676894	0.098547	0.234195	1597.268799
4245.654732	0.713976	0.252451	314.149353
4245.655630	0.417737	0.252451	689.277039
4245.656600	0.098049	0.252451	784.384888
4245.657514	0.099972	0.252451	875.759216
4245.658413	0.099979	0.252451	965.640564
4245.659322	0.100074	0.252451	1056.608276
4245.660213	0.100115	0.252451	1145.810547
4245.661177	0.099851	0.252451	1242.067017
4245.662095	0.099408	0.252451	1333.323486
4245.662991	0.100466	0.252451	1423.341309
4245.663919	0.099221	0.252451	1515.418579
4245.664828	0.099576	0.252451	1605.933594
4246.699740	0.690718	0.235745	306.678680
4246.700667	0.412822	0.235745	689.364868
4246.701567	0.099902	0.235745	779.276978
4246.702502	0.098807	0.235745	871.661865
4246.703406	0.098796	0.235745	960.973816
4246.704309	0.099950	0.235745	1051.228638
4246.705199	0.100093	0.235745	1140.311157
4246.706149	0.098463	0.235745	1233.851074
4246.707049	0.098624	0.235745	1322.612915
4246.707946	0.099869	0.235745	1412.195801
4246.708841	0.099239	0.235745	1501.015137
4246.709773	0.098536	0.235745	1592.851074
4247.691222	0.700510	0.238751	314.529114
4247.692161	0.371345	0.238751	663.222290
4247.693054	0.098591	0.238751	751.264343
4247.694019	0.099785	0.238751	847.557007
4247.694911	0.099694	0.238751	936.483704
4247.695830	0.100283	0.238751	1028.643921
4247.696723	0.100236	0.238751	1118.154297
4247.697676	0.099738	0.238751	1213.204224
4247.698594	0.099730	0.238751	1304.756592
4247.699481	0.099778	0.238751	1393.259521
4247.700434	0.099130	0.238751	1487.730103
4247.701349	0.099412	0.238751	1578.691772
4248.731847	0.728405	0.242448	317.584381
4248.732831	0.410739	0.242448	721.751099
4248.733740	0.098588	0.242448	811.367249
4248.734637	0.100184	0.242448	901.232605
4248.735578	0.099056	0.242448	994.444702
4248.736478	0.098507	0.242448	1083.101074
4248.737371	0.100199	0.242448	1172.578735
4248.738262	0.100411	0.242448	1262.045288
4248.739196	0.098511	0.242448	1354.054321
4248.740099	0.098694	0.242448	1443.174805
4248.741004	0.100653	0.242448	1534.265869
4248.741893	0.099445	0.242448	1622.672119
4249.730779	0.718030	0.239693	320.959320
4249.731684	0.418879	0.239693	700.045166
4249.732567	0.099210	0.239693	787.647766
4249.733520	0.099075	0.239693	882.065979
4249.734431	0.099756	0.239693	972.943542
4249.735321	0.100316	0.239693	1062.224976
4249.736250	0.099038	0.239693	1154.231323
4249.737166	0.099510	0.239693	1245.382935
4249.738071	0.100441	0.239693	1336.281738
4249.738961	0.100389	0.239693	1425.628296
4249.739899	0.098441	0.239693	1517.966064
4249.740802	0.099983	0.239693	1608.250610
4250.761983	0.715312	0.247552	352.649048
4250.762913	0.408845	0.247552	732.875122
4250.763812	0.099042	0.247552	821.913635
4250.764705	0.099833	0.247552	911.064270
4250.765650	0.098870	0.247552	1004.496094
4250.766550	0.098859	0.247552	1093.468872
4250.767461	0.100309	0.247552	1184.850220
4250.768353	0.099598	0.247552	1273.692017
4250.769292	0.098492	0.247552	1366.176392
4250.770195	0.099481	0.247552	1456.007935
4250.771088	0.100016	0.247552	1545.322144
4250.772024	0.098961	0.247552	1637.949829
4251.771338	0.727844	0.238279	318.067932
4251.772298	0.375132	0.238279	678.194458
4251.773209	0.098177	0.238279	767.634155
4251.774113	0.100269	0.238279	858.276917
4251.775002	0.100367	0.238279	947.503540
4251.775934	0.098708	0.238279	1039.499878
4251.776854	0.099932	0.238279	1131.437012
4251.777760	0.100225	0.238279	1222.240479
4251.778651	0.099587	0.238279	1310.972900
4251.779598	0.098873	0.238279	1404.605957
4251.780498	0.099573	0.238279	1494.221436
4251.781389	0.100184	0.238279	1583.485718
4252.790477	0.722443	0.244732	314.984985
4252.791371	0.415543	0.244732	686.480591
4252.792317	0.098086	0.244732	779.269897
4252.793229	0.099639	0.244732	870.140381
4252.794126	0.100042	0.244732	959.877625
4252.795057	0.099199	0.244732	1052.232056
4252.795956	0.098844	0.244732	1141.092773
4252.796867	0.099778	0.244732	1231.990356
4252.797759	0.099946	0.244732	1321.142456
4252.798700	0.098529	0.244732	1413.858276
4252.799600	0.099023	0.244732	1502.979370
4252.800503	0.099218	0.244732	1592.572754
4253.812431	0.718975	0.238613	314.910858
4253.813357	0.415199	0.238613	699.385132
4253.814258	0.099749	0.238613	789.258545
4253.815208	0.098903	0.238613	883.216003
4253.816110	0.098903	0.238613	972.426147
4253.817007	0.101667	0.238613	1063.621826
4253.817892	0.100404	0.238613	1152.479370
4253.818823	0.098588	0.238613	1244.264526
4253.819732	0.098712	0.238613	1333.993896
4253.820633	0.101177	0.238613	1425.154175
4253.821560	0.098939	0.238613	1516.870850
4253.822484	0.098364	0.238613	1607.759399
4254.820809	0.724801	0.239975	314.563660
4254.821750	0.414401	0.239975	704.514648
4254.822667	0.098163	0.239975	794.529968
4254.823576	0.100920	0.239975	886.266602
4254.824464	0.099910	0.239975	974.986389
4254.825404	0.098815	0.239975	1067.872192
4254.826309	0.099536	0.239975	1157.952393
4254.827204	0.100085	0.239975	1247.528809
4254.828123	0.099188	0.239975	1338.682739
4254.829040	0.098745	0.239975	1429.232056
4254.829948	0.099701	0.239975	1519.760498
4254.830845	0.100323	0.239975	1609.750610
4255.850714	0.706014	0.230271	314.882416
4255.851614	0.413097	0.230271	686.669678
4255.852575	0.098130	0.230271	780.972473
4255.853472	0.100045	0.230271	870.713013
4255.854360	0.100430	0.230271	959.894592
4255.855295	0.099236	0.230271	1052.680054
4255.856206	0.099170	0.230271	1143.023804
4255.857107	0.099478	0.230271	1232.653076
4255.857998	0.099771	0.230271	1321.548584
4255.858951	0.098646	0.230271	1415.558472
4255.859860	0.099503	0.230271	1506.006836
4255.860760	0.099803	0.230271	1595.829956
4256.854220	0.728591	0.238307	322.037354
4256.855216	0.365288	0.238307	685.864319
4256.856124	0.098082	0.238307	774.923035
4256.857026	0.099738	0.238307	864.886292
4256.857946	0.099368	0.238307	956.304565
4256.858850	0.098965	0.238307	1045.768799
4256.859761	0.100261	0.238307	1137.106812
4256.860649	0.099968	0.238307	1225.878662
4256.861584	0.098760	0.238307	1318.218994
4256.862493	0.098884	0.238307	1408.104858
4256.863398	0.099565	0.238307	1498.211548
4256.864288	0.100005	0.238307	1587.215942
4257.883855	0.713991	0.235757	312.727844
4257.884806	0.404879	0.235757	697.767944
4257.885716	0.098269	0.235757	787.192749
4257.886625	0.099606	0.235757	877.734375
4257.887518	0.099950	0.235757	966.989685
4257.888468	0.098760	0.235757	1060.811523
4257.889371	0.099342	0.235757	1150.517334
4257.890266	0.099847	0.235757	1239.880737
4257.891197	0.099423	0.235757	1332.443237
4257.892102	0.098643	0.235757	1421.714722
4257.893007	0.099858	0.235757	1512.086548
4257.893906	0.100375	0.235757	1602.323486
4258.893256	0.713807	0.238662	314.075226
4258.894152	0.416012	0.238662	686.821899
4258.895111	0.098386	0.238662	781.174316
4258.896020	0.099459	0.238662	871.582764
4258.896922	0.099924	0.238662	961.714478
4258.897843	0.099357	0.238662	1053.221924
4258.898751	0.098687	0.238662	1142.829346
4258.899653	0.099727	0.238662	1232.782715
4258.900541	0.099829	0.238662	1321.430908
4258.901485	0.098463	0.238662	1414.380127
4258.902391	0.099210	0.238662	1504.264526
4258.903286	0.100232	0.238662	1593.972168
4259.912436	0.604222	0.235931	290.026764
4259.913351	0.408655	0.235931	663.945923
4259.914277	0.099265	0.235931	755.865417
4259.915200	0.098844	0.235931	847.098389
4259.916108	0.099847	0.235931	937.759827
4259.917002	0.099730	0.235931	1026.918701
4259.917937	0.098866	0.235931	1119.358398
4259.918831	0.099042	0.235931	1207.901733
4259.919733	0.099814	0.235931	1297.934326
4259.920620	0.100364	0.235931	1386.957031
4259.921555	0.098437	0.235931	1478.996094
4259.922466	0.099456	0.235931	1569.600098
4260.936138	0.733425	0.234617	321.240295
4260.937033	0.426438	0.234617	702.902344
4260.937996	0.098009	0.234617	797.285034
4260.938893	0.098888	0.234617	885.987549
4260.939799	0.100887	0.234617	977.391602
4260.940687	0.100232	0.234617	1066.397583
4260.941637	0.098785	0.234617	1160.243652
4260.942544	0.099891	0.234617	1250.845093
4260.943443	0.100389	0.234617	1341.095215
4260.944370	0.099122	0.234617	1432.981567
4260.945266	0.098687	0.234617	1521.404663
4260.946162	0.100459	0.234617	1611.415894
4261.938643	0.694922	0.233232	307.155487
4261.939548	0.422391	0.233232	689.419678
4261.940436	0.099272	0.233232	777.573608
4261.941390	0.098881	0.233232	871.905701
4261.942294	0.099661	0.233232	961.998901
4261.943180	0.100532	0.233232	1051.070435
4261.944112	0.099177	0.233232	1143.503662
4261.945025	0.098712	0.233232	1233.627930
4261.945935	0.100411	0.233232	1325.002319
4261.946835	0.100822	0.233232	1415.741699
4261.947769	0.098599	0.233232	1507.832764
4261.948675	0.098503	0.233232	1597.076904
4262.979071	0.585970	0.232398	281.265808
4262.979982	0.419436	0.232398	663.372070
4262.980907	0.099302	0.232398	755.226196
4262.981794	0.099697	0.232398	843.657654
4262.982751	0.099525	0.232398	938.903198
4262.983679	0.099877	0.232398	1031.588745
4262.984567	0.100195	0.232398	1120.562134
4262.985515	0.099902	0.232398	1215.269531
4262.986423	0.100972	0.232398	1306.951782
4262.987338	0.099932	0.232398	1398.389282
4262.988234	0.100042	0.232398	1488.026489
4262.989197	0.098917	0.232398	1583.283813
4263.967484	0.638536	0.242916	311.605774
4263.968402	0.408087	0.242916	686.229797
4263.969304	0.099664	0.242916	776.127014
4263.970193	0.099210	0.242916	864.324890
4263.971141	0.098617	0.242916	957.813721
4263.972046	0.099741	0.242916	1048.079468
4263.972935	0.100334	0.242916	1137.276855
4263.973850	0.099437	0.242916	1228.261963
4263.974765	0.098584	0.242916	1318.466309
4263.975673	0.099807	0.242916	1409.091187
4263.976567	0.100972	0.242916	1499.359863
4263.977494	0.098925	0.242916	1591.062988
4265.018332	0.694237	0.233143	306.852783
4265.019236	0.393669	0.233143	662.729980
4265.020128	0.099397	0.233143	751.392090
4265.021072	0.099221	0.233143	845.056885
4265.022000	0.099485	0.233143	937.378845
4265.022905	0.100345	0.233143	1028.191528
4265.023794	0.099836	0.233143	1116.946045
4265.024739	0.098661	0.233143	1210.180542
4265.025647	0.099573	0.233143	1300.592651
4265.026546	0.100126	0.233143	1390.605713
4265.027437	0.099210	0.233143	1479.001953
4265.028376	0.098745	0.233143	1571.723633
4266.000074	0.729012	0.239335	320.036469
4266.001059	0.402953	0.239335	716.945068
4266.001977	0.098829	0.239335	807.670410
4266.002877	0.099932	0.239335	897.608887
4266.003807	0.098979	0.239335	989.659790
4266.004706	0.098687	0.239335	1078.379028
4266.005604	0.100177	0.239335	1168.338013
4266.006490	0.099408	0.239335	1256.413452
4266.007429	0.098654	0.239335	1349.049194
4266.008320	0.099093	0.239335	1437.341064
4266.009223	0.100558	0.239335	1528.144775
4266.010114	0.099075	0.239335	1616.420288
4267.052751	0.713866	0.236736	312.673309
4267.053696	0.339093	0.236736	633.116211
4267.054611	0.097947	0.236736	722.737488
4267.055516	0.100140	0.236736	813.364563
4267.056405	0.100085	0.236736	902.340515
4267.057350	0.098895	0.236736	995.796509
4267.058255	0.098859	0.236736	1085.263550
4267.059161	0.100151	0.236736	1176.000732
4267.060048	0.100159	0.236736	1264.841553
4267.060983	0.098676	0.236736	1357.103149
4267.061884	0.099510	0.236736	1446.762085
4267.062775	0.099653	0.236736	1535.553223
4268.036805	0.720769	0.237216	311.372223
4268.037747	0.390110	0.237216	678.855713
4268.038669	0.099668	0.237216	770.749573
4268.039570	0.099928	0.237216	860.784668
4268.040457	0.099540	0.237216	949.076477
4268.041407	0.099012	0.237216	1043.138306
4268.042327	0.100137	0.237216	1135.264038
4268.043247	0.100961	0.237216	1228.147827
4268.044140	0.099976	0.237216	1317.426025
4268.045087	0.099657	0.237216	1411.801147
4268.045981	0.099749	0.237216	1500.976318
4268.046871	0.100291	0.237216	1590.234863
4269.085139	0.678237	0.241188	303.850311
4269.086040	0.426672	0.241188	688.282104
4269.086967	0.098467	0.241188	779.560852
4269.087873	0.098749	0.241188	869.027222
4269.088789	0.100602	0.241188	961.178467
4269.089683	0.100133	0.241188	1050.697388
4269.090631	0.098734	0.241188	1144.297363
4269.091533	0.099045	0.241188	1233.636353
4269.092422	0.100210	0.241188	1322.723022
4269.093349	0.099423	0.241188	1414.887817
4269.094270	0.098687	0.241188	1505.778076
4269.095177	0.099814	0.241188	1596.309814
4270.075346	0.725911	0.235947	322.304321
4270.076250	0.425962	0.235947	707.373901
4270.077185	0.098701	0.235947	799.659485
4270.078099	0.099408	0.235947	890.518372
4270.079000	0.100159	0.235947	980.761353
4270.079893	0.100283	0.235947	1070.314209
4270.080832	0.098595	0.235947	1162.894897
4270.081740	0.099239	0.235947	1253.004395
4270.082633	0.099745	0.235947	1342.076538
4270.083526	0.099686	0.235947	1431.096436
4270.084472	0.098430	0.235947	1524.211426
4270.085375	0.099825	0.235947	1614.353760
4271.116235	0.728511	0.243588	319.816223
4271.117214	0.403304	0.243588	714.651245
4271.118123	0.098719	0.243588	804.387268
4271.119014	0.099873	0.243588	893.374146
4271.119948	0.099404	0.243588	986.217773
4271.120853	0.098687	0.243588	1075.529053
4271.121755	0.100975	0.243588	1166.608765
4271.122645	0.100649	0.243588	1256.186768
4271.123592	0.098716	0.243588	1349.670654
4271.124492	0.098943	0.243588	1438.719238
4271.125391	0.100496	0.243588	1529.064819
4271.126277	0.099803	0.243588	1617.490723
4272.113872	0.704736	0.238811	310.083984
4272.114798	0.422135	0.238811	700.980957
4272.115699	0.099694	0.238811	790.804871
4272.116640	0.099027	0.238811	883.989380
4272.117540	0.098782	0.238811	972.892944
4272.118438	0.100811	0.238811	1063.420776
4272.119328	0.099833	0.238811	1152.271973
4272.120272	0.098635	0.238811	1245.383667
4272.121171	0.098987	0.238811	1334.372803
4272.122077	0.100334	0.238811	1425.275879
4272.122977	0.099316	0.238811	1514.660645
4272.123919	0.098650	0.238811	1607.588867
4273.147603	0.686235	0.243282	306.060974
4273.148505	0.408611	0.243282	674.627930
4273.149396	0.098203	0.243282	762.126892
4273.150356	0.098690	0.243282	856.869507
4273.151262	0.099027	0.243282	946.588074
4273.152160	0.099796	0.243282	1036.204956
4273.153091	0.098884	0.243282	1128.266235
4273.153991	0.098617	0.243282	1217.021484
4273.154888	0.099873	0.243282	1306.607666
4273.155780	0.100540	0.243282	1396.288940
4273.156736	0.098562	0.243282	1490.514160
4273.157633	0.098859	0.243282	1579.190430
4274.151631	0.720498	0.238219	317.019135
4274.152529	0.367452	0.238219	646.991333
4274.153490	0.097994	0.238219	741.163940
4274.154403	0.098826	0.238219	831.391785
4274.155307	0.099478	0.238219	921.319458
4274.156237	0.099086	0.238219	1013.469116
4274.157157	0.098694	0.238219	1104.267456
4274.158061	0.099518	0.238219	1194.231567
4274.158955	0.099576	0.238219	1283.252930
4274.159896	0.098650	0.238219	1376.082520
4274.160794	0.099166	0.238219	1465.133789
4274.161697	0.099628	0.238219	1555.097656
4275.179992	0.677981	0.240257	301.023560
4275.180927	0.394211	0.240257	669.611206
4275.181826	0.099518	0.240257	759.077759
4275.182745	0.099152	0.240257	850.198120
4275.183672	0.098624	0.240257	941.622803
4275.184575	0.099082	0.240257	1031.093872
4275.185469	0.099836	0.240257	1120.347656
4275.186404	0.098683	0.240257	1212.616089
4275.187310	0.098573	0.240257	1301.923218
4275.188207	0.099873	0.240257	1391.509399
4275.189097	0.099027	0.240257	1479.643555
4275.190037	0.098573	0.240257	1572.302124
4276.187351	0.676985	0.235556	303.966187
4276.188263	0.408219	0.235556	676.261902
4276.189156	0.099067	0.235556	764.729065
4276.190108	0.098837	0.235556	858.821594
4276.191013	0.100302	0.235556	949.594482
4276.191913	0.100096	0.235556	1039.681274
4276.192841	0.098917	0.235556	1131.476440
4276.193745	0.098800	0.235556	1220.791748
4276.194643	0.100620	0.235556	1311.148560
4276.195527	0.100422	0.235556	1399.921875
4276.196469	0.098298	0.235556	1492.518921
4276.197373	0.099196	0.235556	1582.191650
4277.214675	0.728654	0.235044	322.064880
4277.215585	0.414086	0.235044	698.882812
4277.216472	0.099371	0.235044	787.025208
4277.217453	0.099316	0.235044	884.454590
4277.218354	0.100049	0.235044	974.598572
4277.219243	0.100345	0.235044	1063.805664
4277.220170	0.099210	0.235044	1155.773560
4277.221082	0.100243	0.235044	1247.195068
4277.221979	0.099965	0.235044	1336.863281
4277.222865	0.100444	0.235044	1425.856934
4277.223809	0.098774	0.235044	1519.099976
4277.224715	0.100122	0.235044	1609.810547
4278.222598	0.701785	0.230682	351.594116
4278.223531	0.394578	0.230682	719.735046
4278.224438	0.099565	0.230682	810.040894
4278.225328	0.099620	0.230682	898.703003
4278.226277	0.098895	0.230682	992.554626
4278.227177	0.099408	0.230682	1082.021729
4278.228079	0.100012	0.230682	1172.232788
4278.228967	0.099606	0.230682	1260.682617
4278.229927	0.098624	0.230682	1355.361938
4278.230835	0.098738	0.230682	1445.015869
4278.231731	0.100327	0.230682	1534.908936
4278.232656	0.098884	0.230682	1626.376953
4279.249894	0.717814	0.232192	335.218994
4279.250863	0.401532	0.232192	724.303467
4279.251773	0.099752	0.232192	815.078003
4279.252661	0.100459	0.232192	904.285583
4279.253618	0.099108	0.232192	999.131592
4279.254524	0.100137	0.232192	1089.855469
4279.255416	0.100302	0.232192	1179.324463
4279.256348	0.099276	0.232192	1271.849854
4279.257264	0.099316	0.232192	1362.823730
4279.258171	0.099474	0.232192	1453.046509
4279.259061	0.100195	0.232192	1542.220337
4279.259997	0.099565	0.232192	1635.413574
4280.256011	0.550052	0.226460	273.926117
4280.256928	0.390850	0.226460	632.335205
4280.257830	0.099236	0.226460	721.845947
4280.258723	0.099419	0.226460	810.627075
4280.259659	0.098972	0.226460	903.265015
4280.260560	0.099576	0.226460	992.983337
4280.261458	0.100616	0.226460	1083.336914
4280.262382	0.099111	0.226460	1174.915771
4280.263290	0.098416	0.226460	1264.277100
4280.264194	0.100162	0.226460	1354.823853
4280.265083	0.099584	0.226460	1443.353760
4280.266039	0.098313	0.226460	1537.340942
4281.286616	0.686298	0.226742	304.029846
4281.287532	0.405637	0.226742	675.593506
4281.288419	0.099371	0.226742	763.735901
4281.289360	0.100107	0.226742	857.937012
4281.290263	0.099481	0.226742	947.768555
4281.291161	0.099869	0.226742	1037.451294
4281.292045	0.100074	0.226742	1125.917114
4281.292979	0.098877	0.226742	1218.268188
4281.293893	0.099360	0.226742	1309.083496
4281.294797	0.100554	0.226742	1399.984497
4281.295684	0.099628	0.226742	1488.354248
4281.296635	0.098533	0.226742	1582.058838
4282.288336	0.713965	0.228184	317.000397
4282.289319	0.410222	0.228184	720.248779
4282.290220	0.099218	0.228184	809.643799
4282.291122	0.100415	0.228184	900.218140
4282.292043	0.099452	0.228184	991.813354
4282.292959	0.099045	0.228184	1082.538940
4282.293870	0.100016	0.228184	1173.653442
4282.294770	0.100129	0.228184	1263.769897
4282.295720	0.099012	0.228184	1357.831787
4282.296622	0.098690	0.228184	1446.850342
4282.297520	0.099390	0.228184	1536.102295
4282.298404	0.099294	0.228184	1623.878540
4283.324613	0.718638	0.230646	311.888763
4283.325509	0.409178	0.230646	678.512695
4283.326470	0.098225	0.230646	772.906982
4283.327379	0.099547	0.230646	863.395325
4283.328269	0.100741	0.230646	953.054810
4283.329209	0.099434	0.230646	1046.522339
4283.330117	0.099229	0.230646	1136.621826
4283.331015	0.099437	0.230646	1225.916504
4283.331902	0.099803	0.230646	1314.442139
4283.332857	0.098342	0.230646	1408.359009
4283.333763	0.099415	0.230646	1498.429199
4283.334659	0.100009	0.230646	1588.036865
4284.319697	0.700485	0.224365	311.015167
4284.320603	0.408446	0.224365	681.067261
4284.321492	0.099390	0.224365	769.424683
4284.322454	0.098840	0.224365	864.509094
4284.323367	0.099031	0.224365	954.924194
4284.324268	0.100532	0.224365	1045.503784
4284.325194	0.099536	0.224365	1137.674194
4284.326097	0.098844	0.224365	1226.930298
4284.327002	0.099529	0.224365	1317.003906
4284.327892	0.100060	0.224365	1406.057129
4284.328833	0.098416	0.224365	1498.666138
4284.329741	0.098437	0.224365	1588.047363
4285.363160	0.686990	0.228744	305.710419
4285.364068	0.394442	0.228744	663.863892
4285.364957	0.099324	0.228744	752.162659
4285.365905	0.098580	0.228744	845.616821
4285.366821	0.099998	0.228744	937.214600
4285.367716	0.099913	0.228744	1026.637085
4285.368608	0.100148	0.228744	1115.968872
4285.369556	0.098599	0.228744	1209.440430
4285.370452	0.099419	0.228744	1298.519775
4285.371345	0.100320	0.228744	1388.105347
4285.372285	0.099009	0.228744	1481.173584
4285.373191	0.099324	0.228744	1571.160889
4286.351877	0.703744	0.233413	348.353241
4286.352812	0.412592	0.233413	734.126343
4286.353719	0.099602	0.233413	824.465393
4286.354607	0.099902	0.233413	913.178650
4286.355557	0.099086	0.233413	1007.310059
4286.356470	0.099309	0.233413	1097.979248
4286.357358	0.100452	0.233413	1187.180298
4286.358267	0.100166	0.233413	1278.231201
4286.359204	0.098877	0.233413	1370.878906
4286.360112	0.100217	0.233413	1461.876221
4286.361013	0.099752	0.233413	1551.752930
4286.361954	0.098723	0.233413	1644.651367
4287.401175	0.714225	0.236084	313.544708
4287.402116	0.386045	0.236084	676.812988
4287.403032	0.098668	0.236084	767.193054
4287.403929	0.099902	0.236084	856.805420
4287.404815	0.101294	0.236084	946.551880
4287.405760	0.098925	0.236084	1040.035645
4287.406675	0.100708	0.236084	1132.183472
4287.407573	0.100173	0.236084	1222.139160
4287.408464	0.099675	0.236084	1310.949829
4287.409410	0.098976	0.236084	1404.580933
4287.410311	0.099825	0.236084	1494.523682
4287.411200	0.100005	0.236084	1583.427979
4288.383435	0.719473	0.233079	315.848480
4288.384330	0.411160	0.233079	683.836365
4288.385287	0.098196	0.233079	777.809753
4288.386203	0.099111	0.233079	868.595703
4288.387105	0.100082	0.233079	958.869507
4288.388000	0.098950	0.233079	1047.429932
4288.388937	0.098800	0.233079	1140.005615
4288.389842	0.099181	0.233079	1229.764282
4288.390740	0.099573	0.233079	1319.180664
4288.391674	0.099097	0.233079	1411.736938
4288.392581	0.098683	0.233079	1501.242310
4288.393485	0.100085	0.233079	1591.719604
4289.436633	0.719103	0.229892	322.877167
4289.437533	0.394178	0.229892	677.637817
4289.438456	0.098782	0.229892	768.813354
4289.439379	0.099207	0.229892	860.380981
4289.440277	0.100034	0.229892	950.211670
4289.441174	0.100499	0.229892	1040.359497
4289.442103	0.099390	0.229892	1132.692505
4289.443018	0.099415	0.229892	1223.657471
4289.443917	0.100338	0.229892	1313.861450
4289.444804	0.099485	0.229892	1402.104492
4289.445748	0.098562	0.229892	1495.146973
4289.446643	0.099551	0.229892	1584.244873
4290.418902	0.686594	0.230323	308.967407
4290.419808	0.409827	0.230323	680.270386
4290.420693	0.099320	0.230323	768.168640
4290.421651	0.098965	0.230323	862.976929
4290.422554	0.099276	0.230323	952.623291
4290.423453	0.100181	0.230323	1042.685669
4290.424337	0.099910	0.230323	1131.005859
4290.425272	0.098855	0.230323	1223.435303
4290.426182	0.099562	0.230323	1314.036499
4290.427077	0.100085	0.230323	1403.613037
4290.428006	0.098888	0.230323	1495.479980
4290.428914	0.098507	0.230323	1584.924438
4291.468489	0.713148	0.230952	313.072052
4291.469476	0.392344	0.230952	700.315308
4291.470379	0.099111	0.230952	789.812866
4291.471266	0.099965	0.230952	878.481445
4291.472207	0.099031	0.230952	971.669373
4291.473120	0.099719	0.230952	1062.713013
4291.474036	0.099587	0.230952	1153.935059
4291.474925	0.100042	0.230952	1242.871948
4291.475877	0.098947	0.230952	1337.069092
4291.476776	0.099020	0.230952	1426.087891
4291.477699	0.099294	0.230952	1517.736694
4291.478597	0.098848	0.230952	1606.501953
4292.458965	0.695167	0.231491	308.654266
4292.459864	0.414302	0.231491	681.111572
4292.460768	0.099016	0.231491	770.622131
4292.461713	0.098749	0.231491	863.939697
4292.462622	0.099382	0.231491	954.278198
4292.463518	0.099239	0.231491	1043.196777
4292.464445	0.099177	0.231491	1135.134033
4292.465346	0.098470	0.231491	1223.855957
4292.466253	0.099924	0.231491	1314.487305
4292.467147	0.099752	0.231491	1403.665771
4292.468094	0.098474	0.231491	1496.920776
4292.468995	0.098818	0.231491	1585.956055
4293.497291	0.728470	0.235000	320.527008
4293.498190	0.405645	0.235000	685.201416
4293.499155	0.098141	0.235000	779.907349
4293.500060	0.099598	0.235000	870.043884
4293.500952	0.100074	0.235000	959.310303
4293.501882	0.099126	0.235000	1051.497437
4293.502797	0.099108	0.235000	1142.180908
4293.503702	0.099672	0.235000	1232.383789
4293.504590	0.099954	0.235000	1321.142578
4293.505544	0.098859	0.235000	1415.453735
4293.506441	0.099155	0.235000	1504.395996
4293.507357	0.100082	0.235000	1596.070923
4294.500554	0.728921	0.224369	321.454132
4294.501523	0.388989	0.224369	698.384766
4294.502436	0.098877	0.224369	788.659424
4294.503332	0.100159	0.224369	878.401611
4294.504258	0.099181	0.224369	970.243164
4294.505161	0.098851	0.224369	1059.505859
4294.506062	0.099913	0.224369	1149.527832
4294.506948	0.099617	0.224369	1237.788208
4294.507899	0.098716	0.224369	1331.666992
4294.508799	0.098895	0.224369	1420.672729
4294.509699	0.099679	0.224369	1510.383789
4294.510583	0.099093	0.224369	1597.982056
4295.524300	0.705337	0.230259	308.937561
4295.525271	0.382214	0.230259	680.067688
4295.526193	0.099287	0.230259	771.610413
4295.527111	0.100243	0.230259	863.633423
4295.528000	0.099646	0.230259	952.218689
4295.528949	0.099174	0.230259	1046.334473
4295.529848	0.099730	0.230259	1135.991943
4295.530734	0.100096	0.230259	1224.677368
4295.531670	0.099434	0.230259	1317.747192
4295.532585	0.099756	0.230259	1409.023804
4295.533494	0.098884	0.230259	1498.909668
4295.534384	0.099738	0.230259	1587.676025
4296.543692	0.719637	0.228031	315.201202
4296.544661	0.409501	0.228031	712.007446
4296.545564	0.099393	0.228031	801.759644
4296.546454	0.100133	0.228031	890.878052
4296.547395	0.099045	0.228031	984.079773
4296.548292	0.098676	0.228031	1072.591675
4296.549184	0.099496	0.228031	1161.341919
4296.550077	0.100287	0.228031	1250.898071
4296.551013	0.098588	0.228031	1343.176147
4296.551914	0.099294	0.228031	1432.640381
4296.552811	0.099976	0.228031	1522.318481
4296.553697	0.099082	0.228031	1610.105225
4297.553349	0.732312	0.232523	319.288025
4297.554318	0.410105	0.232523	716.679749
4297.555233	0.099283	0.232523	807.524109
4297.556138	0.100792	0.232523	898.741089
4297.557029	0.099635	0.232523	987.515869
4297.557980	0.098914	0.232523	1081.582642
4297.558882	0.099342	0.232523	1171.189209
4297.559779	0.100781	0.232523	1261.589966
4297.560725	0.099053	0.232523	1355.293823
4297.561630	0.098342	0.232523	1444.293579
4297.562533	0.099554	0.232523	1534.191284
4297.563421	0.099441	0.232523	1622.494873
4298.582993	0.719813	0.228692	316.717834
4298.583947	0.319622	0.228692	621.636841
4298.584865	0.098258	0.228692	711.837769
4298.585759	0.099869	0.228692	801.120972
4298.586647	0.099712	0.228692	889.665161
4298.587580	0.099001	0.228692	982.033508
4298.588481	0.099141	0.228692	1071.359253
4298.589384	0.100104	0.228692	1161.752930
4298.590269	0.099357	0.228692	1249.683594
4298.591212	0.098723	0.228692	1342.779541
4298.592112	0.098961	0.228692	1431.844604
4298.593004	0.100082	0.228692	1521.117554
4299.586508	0.718052	0.233538	315.942749
4299.587487	0.413313	0.233538	720.576172
4299.588386	0.098470	0.233538	809.101135
4299.589285	0.100536	0.233538	899.482910
4299.590172	0.099415	0.233538	987.664246
4299.591121	0.099023	0.233538	1081.637451
4299.592031	0.099873	0.233538	1172.521973
4299.592932	0.100239	0.233538	1262.837524
4299.593860	0.099082	0.233538	1354.785645
4299.594775	0.098719	0.233538	1445.114014
4299.595682	0.100444	0.233538	1536.217041
4299.596572	0.099657	0.233538	1624.911743
4300.618192	0.691941	0.221989	303.762054
4300.619105	0.410673	0.221989	678.706177
4300.619994	0.099320	0.221989	767.001709
4300.620960	0.098884	0.221989	862.523926
4300.621863	0.099587	0.221989	952.451355
4300.622760	0.100305	0.221989	1042.425049
4300.623701	0.099287	0.221989	1135.854248
4300.624602	0.098840	0.221989	1224.909424
4300.625494	0.100323	0.221989	1314.397949
4300.626379	0.100009	0.221989	1402.905518
4300.627312	0.098632	0.221989	1494.928833
4300.628215	0.098676	0.221989	1584.032837
4301.622224	0.713430	0.229320	314.622711
4301.623119	0.410131	0.229320	681.689575
4301.624084	0.098298	0.229320	776.547485
4301.624991	0.099071	0.229320	866.404907
4301.625883	0.099946	0.229320	955.557007
4301.626822	0.099196	0.229320	1048.701660
4301.627731	0.098639	0.229320	1138.364380
4301.628631	0.100140	0.229320	1228.490723
4301.629531	0.100642	0.229320	1319.068604
4301.630470	0.098379	0.229320	1411.446411
4301.631386	0.098654	0.229320	1501.813110
4301.632287	0.100470	0.229320	1592.336548
4302.650836	0.696526	0.223471	309.954010
4302.651759	0.409926	0.223471	688.315308
4302.652655	0.099767	0.223471	777.706421
4302.653589	0.099115	0.223471	870.279846
4302.654489	0.098796	0.223471	959.196594
4302.655393	0.100093	0.223471	1049.680420
4302.656284	0.100917	0.223471	1139.597290
4302.657237	0.098701	0.223471	1233.659546
4302.658137	0.098998	0.223471	1322.757568
4302.659032	0.099884	0.223471	1412.153809
4302.659938	0.100027	0.223471	1502.778076
4302.660866	0.098416	0.223471	1594.107666
4303.660513	0.675450	0.230114	303.952698
4303.661439	0.408010	0.230114	681.770142
4303.662332	0.099049	0.230114	770.220947
4303.663261	0.099712	0.230114	862.853333
4303.664178	0.098749	0.230114	953.405945
4303.665087	0.099847	0.230114	1044.167236
4303.665984	0.099983	0.230114	1133.851929
4303.666920	0.098969	0.230114	1226.486450
4303.667819	0.099229	0.230114	1315.692871
4303.668723	0.100118	0.230114	1406.199951
4303.669611	0.099760	0.230114	1494.786377
4303.670551	0.098690	0.230114	1587.555176
4304.681946	0.702565	0.224668	314.046417
4304.682842	0.410314	0.224668	681.687500
4304.683806	0.098174	0.224668	776.327087
4304.684721	0.100049	0.224668	867.871765
4304.685617	0.100496	0.224668	957.915833
4304.686554	0.099569	0.224668	1051.212036
4304.687457	0.098855	0.224668	1140.478027
4304.688372	0.099598	0.224668	1231.610596
4304.689271	0.099668	0.224668	1321.212158
4304.690200	0.098745	0.224668	1412.946411
4304.691108	0.099254	0.224668	1503.069214
4304.692010	0.100012	0.224668	1593.280273
4305.698790	0.723856	0.229643	335.145416
4305.699702	0.402821	0.229643	702.518188
4305.700629	0.098434	0.229643	793.766357
4305.701564	0.099921	0.229643	887.192139
4305.702473	0.099833	0.229643	977.940125
4305.703360	0.100459	0.229643	1067.047241
4305.704346	0.099034	0.229643	1164.695190
4305.705253	0.099785	0.229643	1255.200317
4305.706171	0.100162	0.229643	1347.149414
4305.707057	0.099756	0.229643	1435.533081
4305.708003	0.099053	0.229643	1529.236938
4305.708898	0.099855	0.229643	1618.606934
4306.713555	0.700386	0.223826	311.671661
4306.714477	0.420718	0.223826	699.573425
4306.715375	0.100400	0.223826	789.732971
4306.716298	0.099130	0.223826	881.229614
4306.717205	0.098914	0.223826	970.944214
4306.718104	0.099218	0.223826	1060.140747
4306.718998	0.100192	0.223826	1149.712036
4306.719933	0.098928	0.223826	1242.209961
4306.720843	0.099078	0.223826	1332.371338
4306.721753	0.100726	0.223826	1424.032227
4306.722646	0.099917	0.223826	1513.258057
4306.723597	0.098525	0.223826	1606.955688
4307.736519	0.717821	0.229675	312.252167
4307.737510	0.408450	0.229675	717.025818
4307.738405	0.098884	0.229675	805.527222
4307.739317	0.101276	0.229675	897.890625
4307.740215	0.099668	0.229675	987.392456
4307.741181	0.099236	0.229675	1083.254272
4307.742084	0.099888	0.229675	1173.452881
4307.742974	0.100485	0.229675	1262.884155
4307.743898	0.098591	0.229675	1353.982544
4307.744812	0.099551	0.229675	1444.971924
4307.745726	0.099441	0.229675	1535.860962
4307.746616	0.099368	0.229675	1624.298218
4308.745167	0.714353	0.227745	314.315338
4308.746105	0.397357	0.227745	687.036377
4308.747011	0.098163	0.227745	775.971924
4308.747922	0.099532	0.227745	866.645996
4308.748820	0.100206	0.227745	956.631226
4308.749754	0.098892	0.227745	1048.995972
4308.750652	0.098807	0.227745	1137.724976
4308.751545	0.100400	0.227745	1227.382568
4308.752433	0.099313	0.227745	1315.572266
4308.753380	0.098602	0.227745	1408.948608
4308.754284	0.099404	0.227745	1498.810059
4308.755183	0.099763	0.227745	1588.497192
4309.773287	0.692904	0.227959	315.964264
4309.774217	0.374180	0.227959	663.951355
4309.775109	0.099771	0.227959	752.946655
4309.776052	0.099100	0.227959	846.398254
4309.776952	0.098712	0.227959	935.239197
4309.777851	0.100005	0.227959	1025.143555
4309.778768	0.099218	0.227959	1116.125977
4309.779662	0.100177	0.227959	1205.684204
4309.780575	0.099152	0.227959	1296.209595
4309.781505	0.099580	0.227959	1388.819092
4309.782429	0.099218	0.227959	1480.496094
4309.783321	0.100649	0.227959	1570.275391
4310.779864	0.686375	0.225324	305.436676
4310.780799	0.409823	0.225324	688.621216
4310.781698	0.098932	0.225324	777.560974
4310.782635	0.099452	0.225324	870.747437
4310.783538	0.098811	0.225324	959.973816
4310.784436	0.099968	0.225324	1049.745361
4310.785328	0.100605	0.225324	1139.485474
4310.786269	0.098716	0.225324	1232.377075
4310.787162	0.098826	0.225324	1320.628418
4310.788065	0.100836	0.225324	1411.683472
4310.788954	0.099990	0.225324	1500.574829
4310.789908	0.098665	0.225324	1594.700806
4311.808459	0.727811	0.226645	316.597900
4311.809408	0.411324	0.226645	706.944824
4311.810316	0.098284	0.226645	796.186401
4311.811223	0.099917	0.226645	886.811096
4311.812111	0.099796	0.226645	975.430054
4311.813066	0.098690	0.226645	1069.679199
4311.813970	0.099265	0.226645	1159.414917
4311.814859	0.099847	0.226645	1248.179321
4311.815783	0.099335	0.226645	1339.964600
4311.816697	0.098606	0.226645	1430.090454
4311.817603	0.099368	0.226645	1520.117554
4311.818502	0.100800	0.226645	1610.736328
4312.814544	0.714031	0.225856	314.887543
4312.815444	0.423981	0.225856	696.470215
4312.816414	0.098152	0.225856	791.677490
4312.817327	0.100049	0.225856	883.022095
4312.818227	0.100551	0.225856	973.517578
4312.819152	0.099071	0.225856	1065.158325
4312.820055	0.098676	0.225856	1154.262329
4312.820949	0.100580	0.225856	1244.180664
4312.821834	0.100236	0.225856	1332.889160
4312.822767	0.098665	0.225856	1424.943237
4312.823673	0.099196	0.225856	1514.814453
4312.824582	0.099672	0.225856	1605.416016
4313.843189	0.720593	0.223282	348.046539
4313.844120	0.405670	0.223282	725.725464
4313.845028	0.099569	0.223282	816.134216
4313.845920	0.099851	0.223282	905.201355
4313.846849	0.098785	0.223282	996.973022
4313.847761	0.099532	0.223282	1087.746582
4313.848678	0.100422	0.223282	1179.833862
4313.849568	0.099188	0.223282	1268.111328
4313.850524	0.099474	0.223282	1363.208374
4313.851421	0.100510	0.223282	1453.366089
4313.852311	0.100360	0.223282	1542.686523
4313.853245	0.098987	0.223282	1635.140259
4314.849762	0.672968	0.219572	304.854309
4314.850690	0.401173	0.219572	677.142944
4314.851582	0.099646	0.219572	766.027161
4314.852530	0.098859	0.219572	859.745178
4314.853432	0.099536	0.219572	949.526794
4314.854333	0.099752	0.219572	1039.403564
4314.855222	0.099316	0.219572	1127.695801
4314.856164	0.098716	0.219572	1220.686157
4314.857077	0.099382	0.219572	1311.422241
4314.857977	0.099510	0.219572	1400.981689
4314.858907	0.099078	0.219572	1493.124512
4314.859811	0.098408	0.219572	1582.085571
4315.876300	0.728214	0.221920	319.685974
4315.877280	0.403641	0.221920	715.254517
4315.878204	0.099364	0.221920	807.066895
4315.879096	0.100272	0.221920	896.509705
4315.880008	0.099935	0.221920	987.650696
4315.880946	0.099880	0.221920	1081.338501
4315.881860	0.099661	0.221920	1172.428345
4315.882747	0.100291	0.221920	1261.385986
4315.883678	0.100184	0.221920	1354.657593
4315.884589	0.099606	0.221920	1445.398437
4315.885507	0.099994	0.221920	1537.192871
4315.886394	0.100181	0.221920	1626.053101
4316.887009	0.695863	0.221505	317.313568
4316.887908	0.414316	0.221505	689.784058
4316.888849	0.098573	0.221505	782.541260
4316.889758	0.099027	0.221505	872.556885
4316.890659	0.100518	0.221505	963.123230
4316.891550	0.099708	0.221505	1051.963257
4316.892491	0.098569	0.221505	1144.717041
4316.893388	0.098939	0.221505	1233.465454
4316.894287	0.100096	0.221505	1323.452148
4316.895198	0.099393	0.221505	1413.999512
4316.896114	0.098397	0.221505	1504.131348
4316.897013	0.100254	0.221505	1594.259644
4317.907922	0.677527	0.223652	300.821930
4317.908828	0.424453	0.223652	685.376465
4317.909743	0.099540	0.223652	776.455383
4317.910689	0.099855	0.223652	870.917969
4317.911616	0.099771	0.223652	963.405212
4317.912505	0.099254	0.223652	1051.642090
4317.913468	0.099371	0.223652	1147.336670
4317.914362	0.099232	0.223652	1236.050293
4317.915285	0.100228	0.223652	1328.561035
4317.916181	0.099683	0.223652	1417.876709
4317.917132	0.099976	0.223652	1512.953491
4317.918050	0.100001	0.223652	1604.754639
4318.925788	0.704220	0.220035	314.082123
4318.926718	0.405560	0.220035	691.253174
4318.927608	0.099474	0.220035	779.784912
4318.928547	0.099507	0.220035	873.221802
4318.929455	0.098745	0.220035	962.882385
4318.930359	0.100276	0.220035	1053.531738
4318.931251	0.099884	0.220035	1142.628296
4318.932198	0.098690	0.220035	1236.087891
4318.933095	0.098829	0.220035	1324.737793
4318.933999	0.099987	0.220035	1415.125610
4318.934888	0.099166	0.220035	1503.284424
4318.935827	0.098701	0.220035	1595.964844
4319.939036	0.686796	0.226053	309.058044
4319.939967	0.390143	0.226053	672.281006
4319.940856	0.099291	0.226053	760.550537
4319.941788	0.099177	0.226053	852.983765
4319.942694	0.098665	0.226053	942.373840
4319.943598	0.100184	0.226053	1032.940430
4319.944487	0.100126	0.226053	1121.952148
4319.945448	0.098489	0.226053	1216.599854
4319.946350	0.098566	0.226053	1305.506104
4319.947253	0.099924	0.226053	1395.737793
4319.948140	0.099576	0.226053	1484.062012
4319.949077	0.098558	0.226053	1576.411133
4320.963024	0.701316	0.216276	311.384247
4320.963921	0.422897	0.216276	690.722595
4320.964854	0.098888	0.216276	782.985046
4320.965761	0.098690	0.216276	872.497070
4320.966672	0.099456	0.216276	963.101074
4320.967569	0.100496	0.216276	1053.245605
4320.968511	0.099126	0.216276	1146.622314
4320.969413	0.098932	0.216276	1235.858887
4320.970317	0.100444	0.216276	1326.660522
4320.971201	0.100378	0.216276	1415.395020
4320.972136	0.098774	0.216276	1507.749146
4320.973045	0.099481	0.216276	1598.177612
4321.970640	0.714078	0.221924	313.480408
4321.971594	0.314454	0.221924	613.469849
4321.972497	0.098232	0.221924	702.173706
4321.973394	0.100551	0.221924	792.367554
4321.974286	0.100492	0.221924	882.006348
4321.975220	0.098840	0.221924	974.323242
4321.976124	0.098983	0.221924	1063.803955
4321.977027	0.099862	0.221924	1153.979370
4321.977914	0.099573	0.221924	1242.300415
4321.978864	0.098463	0.221924	1335.840332
4321.979775	0.098778	0.221924	1425.827148
4321.980670	0.099851	0.221924	1515.193848
4323.000775	0.727628	0.218959	317.973511
4323.001751	0.414071	0.218959	722.106873
4323.002662	0.099144	0.218959	812.427307
4323.003562	0.101104	0.218959	903.420471
4323.004450	0.100243	0.218959	992.436157
4323.005401	0.098998	0.218959	1086.583008
4323.006304	0.099335	0.218959	1176.282227
4323.007202	0.100148	0.218959	1266.214844
4323.008147	0.098914	0.218959	1359.688232
4323.009045	0.098646	0.218959	1448.272583
4323.009942	0.099774	0.218959	1537.770020
4323.010832	0.099921	0.218959	1626.699463
4324.003790	0.703704	0.226037	309.629578
4324.004741	0.342217	0.226037	635.077759
4324.005651	0.098470	0.226037	724.685852
4324.006551	0.100503	0.226037	815.138489
4324.007440	0.099972	0.226037	904.013550
4324.008398	0.098749	0.226037	998.614868
4324.009299	0.098848	0.226037	1087.676636
4324.010194	0.100118	0.226037	1177.282593
4324.011082	0.098925	0.226037	1265.127563
4324.012034	0.098383	0.226037	1358.787720
4324.012944	0.099489	0.226037	1449.322266
4324.013840	0.099781	0.226037	1538.726440
4325.035496	0.604710	0.215439	283.608765
4325.036402	0.410922	0.215439	655.903809
4325.037290	0.099152	0.215439	743.950439
4325.038250	0.098888	0.215439	838.882874
4325.039155	0.099335	0.215439	928.780762
4325.040064	0.100540	0.215439	1020.171204
4325.040953	0.099895	0.215439	1108.977905
4325.041892	0.098870	0.215439	1201.816528
4325.042804	0.099181	0.215439	1292.269531
4325.043696	0.099880	0.215439	1381.362793
4325.044636	0.098807	0.215439	1474.241699
4325.045535	0.098408	0.215439	1562.710693
4326.040018	0.699913	0.220957	311.461426
4326.040914	0.406970	0.220957	676.106750
4326.041865	0.098320	0.220957	769.609375
4326.042772	0.099598	0.220957	859.945129
4326.043661	0.100609	0.220957	949.386658
4326.044598	0.099009	0.220957	1042.157959
4326.045503	0.098734	0.220957	1131.512329
4326.046406	0.101781	0.220957	1223.420532
4326.047300	0.099503	0.220957	1312.376343
4326.048257	0.098507	0.220957	1406.647583
4326.049160	0.098936	0.220957	1495.986328
4326.050056	0.099880	0.220957	1585.479126
4327.066571	0.718586	0.215366	312.585114
4327.067468	0.420220	0.215366	689.522217
4327.068417	0.098177	0.215366	782.692627
4327.069329	0.100148	0.215366	874.027344
4327.070221	0.099741	0.215366	962.996521
4327.071155	0.099620	0.215366	1056.041992
4327.072054	0.098734	0.215366	1144.803955
4327.072954	0.100477	0.215366	1235.233521
4327.073845	0.100199	0.215366	1324.510864
4327.074781	0.098708	0.215366	1416.901978
4327.075682	0.099166	0.215366	1506.250732
4327.076584	0.099902	0.215366	1596.362671
4328.078811	0.670320	0.220389	300.973602
4328.079718	0.410863	0.220389	673.626343
4328.080605	0.098840	0.220389	761.297729
4328.081573	0.098734	0.220389	856.872375
4328.082478	0.099635	0.220389	947.042053
4328.083368	0.100269	0.220389	1036.281006
4328.084294	0.099767	0.220389	1128.665039
4328.085203	0.098701	0.220389	1218.384399
4328.086104	0.100543	0.220389	1308.973877
4328.086996	0.099598	0.220389	1397.815674
4328.087947	0.098771	0.220389	1491.746704
4328.088844	0.099104	0.220389	1580.642944
4329.095134	0.675645	0.220345	302.013123
4329.096041	0.415602	0.220345	678.963989
4329.096932	0.099375	0.220345	767.507080
4329.097890	0.098555	0.220345	861.922485
4329.098792	0.099243	0.220345	951.439819
4329.099690	0.100298	0.220345	1041.507324
4329.100585	0.099250	0.220345	1130.336548
4329.101539	0.098679	0.220345	1224.476562
4329.102453	0.099543	0.220345	1315.459229
4329.103348	0.100232	0.220345	1405.166870
4329.104275	0.098921	0.220345	1496.866577
4329.105181	0.098668	0.220345	1586.260010
4330.120141	0.727742	0.215882	319.478607
4330.121123	0.406007	0.215882	718.177551
4330.122022	0.099075	0.215882	807.245728
4330.122922	0.100074	0.215882	897.312744
4330.123813	0.099485	0.215882	985.953735
4330.124754	0.099012	0.215882	1079.124512
4330.125663	0.099884	0.215882	1169.919067
4330.126563	0.099891	0.215882	1259.821289
4330.127495	0.098478	0.215882	1351.602539
4330.128396	0.098719	0.215882	1440.548828
4330.129289	0.100334	0.215882	1530.147461
4330.130178	0.100280	0.215882	1619.296021
4331.122640	0.720157	0.218754	318.309601
4331.123534	0.416517	0.218754	690.676147
4331.124487	0.098313	0.218754	784.368408
4331.125393	0.099503	0.218754	874.518311
4331.126282	0.100865	0.218754	964.187744
4331.127221	0.099814	0.218754	1057.913574
4331.128127	0.098654	0.218754	1147.293701
4331.129030	0.099906	0.218754	1237.508789
4331.129928	0.099467	0.218754	1326.829712
4331.130869	0.098514	0.218754	1419.531738
4331.131776	0.098456	0.218754	1508.831177
4331.132682	0.099679	0.218754	1599.140259
4332.162514	0.726097	0.219056	323.113342
4332.163422	0.411295	0.219056	696.569336
4332.164309	0.099353	0.219056	784.695435
4332.165277	0.098950	0.219056	880.479248
4332.166181	0.099855	0.219056	970.747925
4332.167078	0.100067	0.219056	1060.508179
4332.168009	0.099031	0.219056	1152.705811
4332.168925	0.099694	0.219056	1244.025146
4332.169826	0.099924	0.219056	1334.057007
4332.170712	0.100708	0.219056	1423.284302
4332.171672	0.098932	0.219056	1518.258911
4332.172581	0.099459	0.219056	1608.667358
4333.151197	0.692703	0.219636	309.638092
4333.152123	0.386913	0.219636	667.919434
4333.153010	0.098595	0.219636	755.373169
4333.153949	0.099031	0.219636	848.363037
4333.154848	0.099247	0.219636	937.585937
4333.155747	0.100049	0.219636	1027.529785
4333.156638	0.099800	0.219636	1116.451416
4333.157590	0.098866	0.219636	1210.571777
4333.158499	0.098855	0.219636	1300.430908
4333.159397	0.100411	0.219636	1390.600342
4333.160323	0.098866	0.219636	1482.150269
4333.161238	0.098558	0.219636	1572.331177
4334.200797	0.678087	0.215737	301.748779
4334.201731	0.407040	0.215737	681.923950
4334.202627	0.100082	0.215737	771.597229
4334.203556	0.099492	0.215737	864.025452
4334.204464	0.099045	0.215737	953.958679
4334.205367	0.099928	0.215737	1044.193604
4334.206268	0.100382	0.215737	1134.637817
4334.207198	0.099170	0.215737	1226.865845
4334.208103	0.098976	0.215737	1316.438965
4334.209013	0.100181	0.215737	1407.603394
4334.209901	0.099598	0.215737	1496.046753
4334.210855	0.098741	0.215737	1590.246094
4335.182793	0.718121	0.219141	314.537140
4335.183772	0.335068	0.219141	642.569092
4335.184677	0.098229	0.219141	731.466125
4335.185573	0.100532	0.219141	821.542969
4335.186460	0.099324	0.219141	909.643127
4335.187402	0.098815	0.219141	1002.726562
4335.188307	0.099210	0.219141	1092.511841
4335.189201	0.100569	0.219141	1182.420410
4335.190122	0.098738	0.219141	1273.357910
4335.191037	0.098610	0.219141	1363.585693
4335.191942	0.100408	0.219141	1454.454712
4335.192835	0.100404	0.219141	1544.115479
4336.236493	0.714950	0.214222	315.292938
4336.237469	0.397877	0.214222	703.621094
4336.238380	0.098741	0.214222	793.574585
4336.239276	0.100243	0.214222	883.392212
4336.240213	0.099111	0.214222	976.259521
4336.241113	0.098870	0.214222	1065.242187
4336.242008	0.100192	0.214222	1154.913696
4336.242898	0.099767	0.214222	1243.706177
4336.243837	0.098752	0.214222	1336.434692
4336.244741	0.098723	0.214222	1425.680420
4336.245642	0.100151	0.214222	1515.916748
4336.246527	0.099141	0.214222	1603.656250
4337.217532	0.719553	0.218065	351.141968
4337.218467	0.351555	0.218065	679.846069
4337.219374	0.099653	0.218065	770.231628
4337.220261	0.099675	0.218065	858.643616
4337.221198	0.099342	0.218065	951.727112
4337.222100	0.099932	0.218065	1041.865479
4337.223015	0.099547	0.218065	1132.951050
4337.223911	0.099510	0.218065	1222.112427
4337.224875	0.099327	0.218065	1317.864014
4337.225780	0.099825	0.218065	1408.206055
4337.226671	0.100192	0.218065	1497.476807
4337.227603	0.098716	0.218065	1589.479980
4338.270682	0.690487	0.214049	307.266754
4338.271601	0.408197	0.214049	682.399780
4338.272499	0.099551	0.214049	771.796387
4338.273435	0.099130	0.214049	864.581726
4338.274341	0.099023	0.214049	954.296936
4338.275243	0.100166	0.214049	1044.646729
4338.276132	0.099858	0.214049	1133.420898
4338.277076	0.098958	0.214049	1226.836792
4338.277985	0.099027	0.214049	1316.852417
4338.278878	0.100426	0.214049	1406.532837
4338.279809	0.098994	0.214049	1498.696411
4338.280710	0.098463	0.214049	1587.411743
4339.252186	0.705194	0.212679	315.221771
4339.253086	0.424896	0.212679	697.628418
4339.254031	0.099126	0.212679	791.302490
4339.254943	0.100415	0.212679	882.880981
4339.255853	0.100858	0.212679	974.661926
4339.256762	0.099540	0.212679	1065.143555
4339.257696	0.098760	0.212679	1157.385132
4339.258600	0.099591	0.212679	1247.415405
4339.259491	0.100305	0.212679	1336.787354
4339.260424	0.098917	0.212679	1429.077148
4339.261342	0.100206	0.212679	1521.066528
4339.262245	0.100247	0.212679	1611.589233
4340.304348	0.672726	0.219487	305.417511
4340.305254	0.399097	0.219487	666.999146
4340.306153	0.099302	0.219487	756.271423
4340.307109	0.098888	0.219487	850.808289
4340.308025	0.099734	0.219487	942.164551
4340.308922	0.100367	0.219487	1032.194092
4340.309840	0.098950	0.219487	1123.030396
4340.310744	0.098723	0.219487	1212.276123
4340.311659	0.099961	0.219487	1303.740356
4340.312555	0.100071	0.219487	1393.403809
4340.313505	0.098610	0.219487	1487.083008
4340.314409	0.098617	0.219487	1576.232666
4341.289418	0.731737	0.217461	320.500854
4341.290396	0.387814	0.217461	699.782715
4341.291297	0.099305	0.217461	789.256897
4341.292199	0.099928	0.217461	879.391907
4341.293095	0.099302	0.217461	968.366272
4341.294050	0.099250	0.217461	1063.150513
4341.294957	0.100752	0.217461	1154.532471
4341.295849	0.099639	0.217461	1243.410156
4341.296776	0.098741	0.217461	1334.943481
4341.297686	0.099174	0.217461	1425.191406
4341.298577	0.099880	0.217461	1514.184814
4341.299464	0.099705	0.217461	1602.622803
4342.336489	0.636738	0.213259	291.626129
4342.337419	0.412463	0.213259	675.217102
4342.338323	0.099712	0.213259	765.356689
4342.339211	0.099192	0.213259	853.439087
4342.340161	0.098932	0.213259	947.424377
4342.341069	0.099781	0.213259	1038.026001
4342.341964	0.100547	0.213259	1128.015503
4342.342903	0.099078	0.213259	1221.050049
4342.343802	0.098884	0.213259	1309.947021
4342.344703	0.099840	0.213259	1399.902954
4342.345593	0.099913	0.213259	1488.825806
4342.346533	0.098599	0.213259	1581.508545
4343.325148	0.714730	0.214863	323.772797
4343.326043	0.416832	0.214863	696.837646
4343.326972	0.098434	0.214863	788.282715
4343.327881	0.099712	0.214863	878.920837
4343.328801	0.099987	0.214863	970.908508
4343.329696	0.099968	0.214863	1060.380127
4343.330631	0.098965	0.214863	1152.912231
4343.331535	0.099833	0.214863	1243.161011
4343.332454	0.100444	0.214863	1335.469360
4343.333343	0.099434	0.214863	1423.865845
4343.334292	0.100159	0.214863	1518.916504
4343.335183	0.100005	0.214863	1608.020874
4344.369651	0.631893	0.214258	294.462280
4344.370575	0.396288	0.214258	660.632263
4344.371471	0.099862	0.214258	750.108643
4344.372359	0.099888	0.214258	838.808899
4344.373310	0.098892	0.214258	932.854797
4344.374217	0.099265	0.214258	1022.888306
4344.375116	0.099833	0.214258	1112.637939
4344.376045	0.099038	0.214258	1204.644287
4344.376951	0.098734	0.214258	1294.097412
4344.377850	0.099796	0.214258	1383.814209
4344.378737	0.099595	0.214258	1472.154785
4344.379680	0.098628	0.214258	1565.160889
4345.360361	0.610876	0.215632	282.835785
4345.361282	0.406190	0.215632	656.936951
4345.362209	0.099792	0.215632	749.444580
4345.363095	0.099536	0.215632	837.633606
4345.364062	0.099686	0.215632	934.030212
4345.364963	0.101331	0.215632	1025.329102
4345.365853	0.100155	0.215632	1114.467041
4345.366801	0.099152	0.215632	1208.462769
4345.367701	0.099408	0.215632	1297.929932
4345.368615	0.099928	0.215632	1389.264160
4345.369513	0.099510	0.215632	1478.624634
4345.370445	0.098756	0.215632	1570.665283
4346.404809	0.719506	0.212997	312.265442
4346.405752	0.335039	0.212997	628.207275
4346.406666	0.098177	0.212997	717.941528
4346.407569	0.100715	0.212997	808.887451
4346.408459	0.099891	0.212997	897.790771
4346.409420	0.098899	0.212997	992.832642
4346.410310	0.098844	0.212997	1080.803833
4346.411211	0.100093	0.212997	1170.987427
4346.412096	0.099836	0.212997	1259.342651
4346.413044	0.098624	0.212997	1352.838501
4346.413939	0.099122	0.212997	1441.552979
4346.414837	0.100166	0.212997	1531.502075
4347.395035	0.672517	0.218810	300.615143
4347.395941	0.408867	0.218810	671.048828
4347.396881	0.098687	0.218810	763.814148
4347.397805	0.099734	0.218810	855.968262
4347.398722	0.099869	0.218810	947.548462
4347.399609	0.099481	0.218810	1035.788330
4347.400556	0.099031	0.218810	1129.570435
4347.401458	0.099434	0.218810	1219.259521
4347.402345	0.099683	0.218810	1307.677979
4347.403290	0.098643	0.218810	1400.895264
4347.404191	0.099478	0.218810	1490.524536
4347.405099	0.099500	0.218810	1580.870117
4348.440020	0.692091	0.210874	305.212158
4348.440930	0.424944	0.210874	691.911011
4348.441820	0.099448	0.210874	780.419922
4348.442785	0.099130	0.210874	876.080017
4348.443700	0.100272	0.210874	967.829102
4348.444594	0.100627	0.210874	1057.790039
4348.445530	0.099492	0.210874	1150.914673
4348.446433	0.098723	0.210874	1240.061646
4348.447333	0.099661	0.210874	1329.756226
4348.448223	0.100477	0.210874	1419.181030
4348.449158	0.098540	0.210874	1511.315918
4348.450063	0.098723	0.210874	1600.660400
4349.427672	0.686074	0.215120	303.930878
4349.428580	0.403821	0.215120	670.600159
4349.429473	0.099404	0.215120	759.368164
4349.430431	0.099415	0.215120	854.608032
4349.431341	0.099858	0.215120	945.479187
4349.432261	0.100225	0.215120	1037.685791
4349.433150	0.099155	0.215120	1125.834839
4349.434104	0.099987	0.215120	1221.222046
4349.435027	0.099229	0.215120	1312.809937
4349.435918	0.100455	0.215120	1402.315674
4349.436865	0.099214	0.215120	1496.271240
4349.437754	0.099133	0.215120	1584.400757
4350.475739	0.667614	0.207918	297.755615
4350.476662	0.416646	0.207918	682.319458
4350.477573	0.099781	0.207918	773.220398
4350.478473	0.099972	0.207918	863.195129
4350.479405	0.099119	0.207918	955.573730
4350.480309	0.099917	0.207918	1045.898682
4350.481199	0.100880	0.207918	1135.682007
4350.482127	0.098738	0.207918	1227.310669
4350.483032	0.098635	0.207918	1316.575562
4350.483936	0.099811	0.207918	1406.804565
4350.484825	0.099510	0.207918	1495.269409
4350.485779	0.098522	0.207918	1589.259155
4351.461324	0.718868	0.217292	315.583252
4351.462301	0.407941	0.217292	714.141235
4351.463214	0.098837	0.217292	804.379150
4351.464117	0.100884	0.217292	895.477234
4351.465005	0.099441	0.217292	983.780762
4351.465968	0.098782	0.217292	1078.907593
4351.466875	0.099218	0.217292	1168.897949
4351.467775	0.100162	0.217292	1259.044067
4351.468711	0.098767	0.217292	1351.490112
4351.469608	0.098470	0.217292	1439.818115
4351.470502	0.100540	0.217292	1529.700439
4351.471388	0.100631	0.217292	1618.859619
4352.512984	0.691871	0.208756	305.807129
4352.513888	0.409940	0.208756	676.393066
4352.514775	0.100137	0.208756	765.214355
4352.515722	0.098683	0.208756	858.666992
4352.516632	0.099803	0.208756	949.488159
4352.517530	0.100063	0.208756	1039.345215
4352.518475	0.099100	0.208756	1132.994995
4352.519384	0.098518	0.208756	1222.547974
4352.520283	0.099899	0.208756	1312.356934
4352.521169	0.100228	0.208756	1401.159180
4352.522111	0.098459	0.208756	1493.907959
4352.523018	0.098555	0.208756	1583.297119
4353.494477	0.727687	0.213739	319.454498
4353.495442	0.409351	0.213739	714.477783
4353.496356	0.099086	0.213739	805.042114
4353.497261	0.100741	0.213739	896.212708
4353.498155	0.099664	0.213739	985.312622
4353.499091	0.098807	0.213739	1077.796387
4353.499998	0.099148	0.213739	1167.723633
4353.500887	0.100309	0.213739	1256.898193
4353.501813	0.099258	0.213739	1348.810913
4353.502713	0.098342	0.213739	1437.318970
4353.503618	0.099646	0.213739	1527.498535
4353.504509	0.099639	0.213739	1616.276611
4354.549736	0.639027	0.211048	290.118286
4354.550644	0.407963	0.211048	660.548340
4354.551533	0.099100	0.211048	748.648560
4354.552488	0.098544	0.211048	842.757812
4354.553383	0.099565	0.211048	931.868896
4354.554293	0.100217	0.211048	1023.066650
4354.555195	0.099137	0.211048	1112.488159
4354.556145	0.099108	0.211048	1206.640381
4354.557051	0.099825	0.211048	1297.082275
4354.557940	0.099906	0.211048	1385.898682
4354.558867	0.098807	0.211048	1477.493164
4354.559776	0.099082	0.211048	1567.558716
4355.529168	0.686254	0.212558	305.382843
4355.530077	0.398573	0.212558	667.685669
4355.530967	0.099364	0.212558	756.119629
4355.531927	0.098745	0.212558	850.914917
4355.532821	0.098936	0.212558	939.363281
4355.533721	0.100203	0.212558	1029.545654
4355.534609	0.099507	0.212558	1117.907715
4355.535548	0.098621	0.212558	1210.512451
4355.536447	0.099393	0.212558	1299.867065
4355.537342	0.100012	0.212558	1389.377930
4355.538271	0.098639	0.212558	1481.013428
4355.539178	0.098401	0.212558	1570.263062
4356.583376	0.718693	0.207467	317.662170
4356.584272	0.401122	0.207467	677.067322
4356.585240	0.098214	0.207467	772.138550
4356.586140	0.098921	0.207467	861.167358
4356.587032	0.100540	0.207467	950.848633
4356.587958	0.099265	0.207467	1042.768188
4356.588870	0.098749	0.207467	1132.827026
4356.589779	0.099965	0.207467	1223.694824
4356.590675	0.099327	0.207467	1312.692139
4356.591607	0.098745	0.207467	1404.722534
4356.592510	0.098668	0.207467	1493.819946
4356.593410	0.099749	0.207467	1583.593628
4357.566428	0.677476	0.213920	308.928894
4357.567320	0.395387	0.213920	661.614075
4357.568281	0.098042	0.213920	755.832458
4357.569185	0.098793	0.213920	845.141113
4357.570083	0.100122	0.213920	935.050720
4357.570974	0.099862	0.213920	1024.027832
4357.571923	0.098756	0.213920	1117.747314
4357.572833	0.099836	0.213920	1208.598511
4357.573730	0.100184	0.213920	1298.463867
4357.574657	0.099800	0.213920	1390.978271
4357.575556	0.098807	0.213920	1479.806152
4357.576457	0.100020	0.213920	1569.923706
4358.614533	0.730012	0.211281	361.356049
4358.615466	0.399716	0.211281	734.290649
4358.616365	0.099518	0.211281	823.757202
4358.617254	0.100488	0.211281	913.091309
4358.618189	0.098760	0.211281	1005.431702
4358.619097	0.098947	0.211281	1095.275146
4358.620006	0.099939	0.211281	1186.119629
4358.620898	0.099357	0.211281	1274.745850
4358.621835	0.098335	0.211281	1366.885742
4358.622740	0.099456	0.211281	1456.893066
4358.623635	0.099939	0.211281	1546.338379
4358.624565	0.098939	0.211281	1638.351807
4359.605727	0.686807	0.209916	309.749817
4359.606630	0.410936	0.209916	680.825317
4359.607525	0.100177	0.209916	770.483704
4359.608459	0.098741	0.209916	862.708252
4359.609377	0.099924	0.209916	954.438782
4359.610282	0.100360	0.209916	1045.264648
4359.611169	0.099510	0.209916	1133.530518
4359.612112	0.098716	0.209916	1226.619507
4359.613011	0.100488	0.209916	1316.958496
4359.613901	0.100792	0.209916	1406.663574
4359.614834	0.099221	0.209916	1499.236938
4359.615739	0.098665	0.209916	1588.528320
4360.644614	0.563862	0.209465	280.239563
4360.645542	0.387909	0.209465	640.219055
4360.646441	0.099771	0.209465	729.912720
4360.647326	0.100140	0.209465	818.536987
4360.648263	0.098892	0.209465	911.198425
4360.649167	0.099785	0.209465	1001.404175
4360.650065	0.099708	0.209465	1090.942139
4360.650992	0.099749	0.209465	1183.409058
4360.651896	0.098394	0.209465	1272.356812
4360.652799	0.100162	0.209465	1362.803467
4360.653689	0.099609	0.209465	1451.455811
4360.654650	0.098540	0.209465	1546.152832
4361.646540	0.733590	0.209670	319.111664
4361.647488	0.388575	0.209670	687.481201
4361.648394	0.098339	0.209670	776.575989
4361.649308	0.100217	0.209670	868.174561
4361.650206	0.099855	0.209670	957.844116
4361.651144	0.098734	0.209670	1050.456787
4361.652046	0.098698	0.209670	1139.481934
4361.652945	0.100071	0.209670	1229.445557
4361.653832	0.099375	0.209670	1317.591187
4361.654772	0.098394	0.209670	1410.081177
4361.655676	0.098793	0.209670	1499.389771
4361.656573	0.099335	0.209670	1588.493042
4362.672092	0.691901	0.211189	311.355286
4362.672997	0.397742	0.211189	671.311523
4362.673886	0.098544	0.211189	758.916870
4362.674840	0.098591	0.211189	852.972961
4362.675743	0.100060	0.211189	943.326965
4362.676645	0.099924	0.211189	1033.458740
4362.677584	0.098866	0.211189	1126.293823
4362.678484	0.098745	0.211189	1215.164429
4362.679388	0.100558	0.211189	1306.068726
4362.680276	0.100074	0.211189	1394.934814
4362.681222	0.098621	0.211189	1488.229858
4362.682122	0.099445	0.211189	1577.729980
4363.687897	0.691480	0.208252	306.325409
4363.688828	0.410186	0.208252	688.208130
4363.689727	0.099778	0.208252	777.908386
4363.690661	0.099357	0.208252	870.707520
4363.691570	0.098851	0.208252	960.563354
4363.692467	0.100349	0.208252	1050.576538
4363.693356	0.100031	0.208252	1139.503662
4363.694303	0.098687	0.208252	1232.959839
4363.695209	0.098698	0.208252	1322.379761
4363.696103	0.100994	0.208252	1412.668091
4363.696997	0.100137	0.208252	1502.190308
4363.697942	0.098892	0.208252	1595.642822
4364.701673	0.645194	0.212623	294.208527
4364.702588	0.361890	0.212623	625.337524
4364.703478	0.099965	0.212623	714.306030
4364.704435	0.099093	0.212623	809.138062
4364.705334	0.099291	0.212623	898.400452
4364.706237	0.100111	0.212623	988.800781
4364.707127	0.100294	0.212623	1078.062622
4364.708059	0.098496	0.212623	1169.860962
4364.708970	0.099888	0.212623	1260.858643
4364.709869	0.099957	0.212623	1350.720215
4364.710755	0.099397	0.212623	1438.785889
4364.711696	0.098654	0.212623	1531.618896
4365.728724	0.710358	0.206592	316.109161
4365.729621	0.427101	0.206592	699.218628
4365.730558	0.098555	0.206592	791.564392
4365.731470	0.098855	0.206592	881.720154
4365.732371	0.100884	0.206592	972.616455
4365.733263	0.100096	0.206592	1061.902466
4365.734215	0.098785	0.206592	1155.946167
4365.735110	0.098767	0.206592	1244.342773
4365.736004	0.100375	0.206592	1334.077759
4365.736891	0.099459	0.206592	1422.298096
4365.737839	0.098309	0.206592	1515.495361
4365.738739	0.099844	0.206592	1605.354736
4366.732741	0.720114	0.212546	312.529266
4366.733686	0.372030	0.212546	664.097656
4366.734600	0.098240	0.212546	753.888794
4366.735500	0.100309	0.212546	844.166748
4366.736390	0.100309	0.212546	933.441650
4366.737337	0.098676	0.212546	1026.887329
4366.738236	0.098668	0.212546	1115.590088
4366.739139	0.100115	0.212546	1205.993652
4366.740025	0.100038	0.212546	1294.627197
4366.740971	0.098412	0.212546	1387.724854
4366.741869	0.099258	0.212546	1476.858398
4366.742776	0.099873	0.212546	1567.443237
4367.765005	0.706245	0.206085	357.360016
4367.765925	0.406597	0.206085	731.428955
4367.766847	0.100569	0.206085	824.153442
4367.767739	0.099803	0.206085	913.178162
4367.768691	0.100503	0.206085	1008.856934
4367.769604	0.099844	0.206085	1100.014282
4367.770490	0.099866	0.206085	1188.495361
4367.771432	0.098492	0.206085	1281.275269
4367.772332	0.099789	0.206085	1371.085205
4367.773247	0.099957	0.206085	1462.546143
4367.774143	0.099679	0.206085	1551.858521
4367.775102	0.098815	0.206085	1646.621826
4368.767453	0.676095	0.214278	303.566620
4368.768383	0.410643	0.214278	685.464905
4368.769279	0.100001	0.214278	775.065979
4368.770222	0.098976	0.214278	868.400208
4368.771129	0.098624	0.214278	957.852417
4368.772029	0.100020	0.214278	1047.869995
4368.772918	0.099474	0.214278	1136.302246
4368.773869	0.098639	0.214278	1230.107910
4368.774779	0.099031	0.214278	1320.225952
4368.775678	0.100012	0.214278	1410.136963
4368.776563	0.099225	0.214278	1497.950928
4368.777500	0.098555	0.214278	1590.296631
4369.799621	0.718275	0.206794	311.731415
4369.800579	0.321932	0.206794	620.142639
4369.801497	0.098394	0.206794	710.467896
4369.802402	0.099697	0.206794	800.693909
4369.803290	0.100291	0.206794	889.751892
4369.804226	0.098712	0.206794	982.146484
4369.805138	0.099983	0.206794	1073.330933
4369.806035	0.100422	0.206794	1163.409790
4369.806922	0.099580	0.206794	1251.737305
4369.807871	0.098599	0.206794	1345.307373
4369.808776	0.099239	0.206794	1435.119141
4369.809667	0.100192	0.206794	1524.389893
4370.802635	0.703564	0.210460	309.568359
4370.803612	0.388173	0.210460	688.812988
4370.804512	0.098276	0.210460	777.261719
4370.805411	0.100195	0.210460	867.337280
4370.806298	0.099734	0.210460	955.801208
4370.807249	0.098712	0.210460	1049.676514
4370.808148	0.099580	0.210460	1139.198975
4370.809048	0.099536	0.210460	1228.781494
4370.809975	0.099097	0.210460	1320.644165
4370.810884	0.098617	0.210460	1410.286987
4370.811786	0.099163	0.210460	1499.731689
4370.812674	0.100232	0.210460	1588.737671
4371.833341	0.703846	0.206842	343.477081
4371.834267	0.402737	0.206842	716.411377
4371.835167	0.099646	0.206842	806.092773
4371.836053	0.099957	0.206842	894.654907
4371.837012	0.098796	0.206842	989.400635
4371.837915	0.098928	0.206842	1078.732788
4371.838811	0.100668	0.206842	1168.931030
4371.839723	0.099467	0.206842	1259.644531
4371.840638	0.098503	0.206842	1349.775146
4371.841538	0.099280	0.206842	1439.126953
4371.842435	0.099888	0.206842	1528.726196
4371.843368	0.098500	0.206842	1620.626465
4372.839372	0.728057	0.208264	320.344940
4372.840341	0.401536	0.208264	709.432983
4372.841245	0.099053	0.208264	798.976685
4372.842140	0.099895	0.208264	888.382751
4372.843064	0.099393	0.208264	980.222168
4372.843964	0.098862	0.208264	1069.198242
4372.844875	0.099602	0.208264	1159.935669
4372.845766	0.100605	0.208264	1249.575195
4372.846693	0.098745	0.208264	1341.111938
4372.847595	0.098745	0.208264	1430.180054
4372.848496	0.100302	0.208264	1520.551758
4372.849383	0.099752	0.208264	1609.031982
4373.865927	0.719539	0.206729	313.718811
4373.866900	0.405044	0.206729	707.826538
4373.867815	0.099111	0.206729	798.513428
4373.868713	0.100287	0.206729	888.571045
4373.869651	0.099767	0.206729	982.152344
4373.870557	0.098741	0.206729	1071.612061
4373.871455	0.100360	0.206729	1161.735474
4373.872341	0.100283	0.206729	1250.586426
4373.873291	0.098412	0.206729	1344.077637
4373.874188	0.098635	0.206729	1432.553467
4373.875089	0.099990	0.206729	1522.644653
4373.875982	0.099800	0.206729	1611.765869
4374.876619	0.722190	0.209412	318.485748
4374.877597	0.394255	0.209412	704.067505
4374.878495	0.100851	0.209412	794.631531
4374.879380	0.100422	0.209412	883.505310
4374.880308	0.099485	0.209412	975.827271
4374.881250	0.099547	0.209412	1069.600708
4374.882155	0.100265	0.209412	1160.340454
4374.883044	0.100554	0.209412	1249.733154
4374.883978	0.098928	0.209412	1342.132080
4374.884890	0.099500	0.209412	1432.875610
4374.885807	0.100060	0.209412	1524.630493
4374.886695	0.099576	0.209412	1613.054321
4375.899647	0.619973	0.205033	304.406830
4375.900570	0.408171	0.205033	681.149048
4375.901479	0.100023	0.205033	772.070129
4375.902369	0.099814	0.205033	860.904968
4375.903332	0.098628	0.205033	955.883667
4375.904238	0.099181	0.205033	1045.741577
4375.905136	0.100276	0.205033	1135.789307
4375.906064	0.099294	0.205033	1227.934570
4375.906965	0.098456	0.205033	1316.643311
4375.907875	0.099371	0.205033	1407.071289
4375.908763	0.100052	0.205033	1495.917847
4375.909702	0.098434	0.205033	1588.347168
4376.913921	0.590284	0.209424	280.975372
4376.914843	0.395585	0.209424	645.704468
4376.915772	0.099243	0.209424	737.901367
4376.916660	0.099587	0.209424	826.334961
4376.917633	0.100100	0.209424	923.732361
4376.918532	0.099910	0.209424	1013.551147
4376.919421	0.099913	0.209424	1102.374146
4376.920365	0.099064	0.209424	1195.890259
4376.921281	0.099540	0.209424	1287.068726
4376.922195	0.100122	0.209424	1378.580322
4376.923083	0.099489	0.209424	1466.926147
4376.924019	0.098800	0.209424	1559.402954
4377.933780	0.686536	0.206190	307.567932
4377.934689	0.419799	0.206190	689.164856
4377.935577	0.099423	0.206190	777.452148
4377.936538	0.098628	0.206190	872.233582
4377.937450	0.099763	0.206190	963.217590
4377.938344	0.100173	0.206190	1052.772583
4377.939268	0.099225	0.206190	1144.456299
4377.940173	0.098558	0.206190	1233.651611
4377.941069	0.100378	0.206190	1323.590698
4377.941961	0.100675	0.206190	1413.392822
4377.942900	0.098547	0.206190	1505.928833
4377.943806	0.098738	0.206190	1595.385254
4378.948556	0.727925	0.208925	318.103149
4378.949495	0.404685	0.208925	698.102417
4378.950414	0.098610	0.208925	788.724670
4378.951317	0.100236	0.208925	879.237427
4378.952207	0.099247	0.208925	967.567139
4378.953149	0.098884	0.208925	1060.716064
4378.954065	0.099122	0.208925	1151.512085
4378.954970	0.100701	0.208925	1242.646240
4378.955858	0.099335	0.208925	1330.855469
4378.956812	0.098291	0.208925	1424.625122
4378.957710	0.100115	0.208925	1514.528198
4378.958598	0.099822	0.208925	1603.169922
4379.969019	0.733751	0.204776	357.336853
4379.969944	0.403184	0.204776	730.281677
4379.970835	0.100052	0.204776	819.428467
4379.971723	0.100104	0.204776	908.320618
4379.972658	0.098815	0.204776	1000.712341
4379.973568	0.099247	0.204776	1091.026978
4379.974475	0.100280	0.204776	1181.980469
4379.975368	0.099349	0.204776	1270.699463
4379.976317	0.098760	0.204776	1364.422485
4379.977227	0.098906	0.204776	1454.427124
4379.978120	0.100437	0.204776	1544.117432
4379.979061	0.099243	0.204776	1637.505249
4380.983267	0.673055	0.211406	306.913269
4380.984172	0.413628	0.211406	681.246582
4380.985057	0.098895	0.211406	768.768860
4380.985987	0.099181	0.211406	861.007080
4380.986914	0.099042	0.211406	952.818787
4380.987821	0.099950	0.211406	1043.473389
4380.988715	0.100510	0.211406	1133.329590
4380.989650	0.098613	0.211406	1225.532959
4380.990556	0.099650	0.211406	1315.815552
4380.991448	0.100371	0.211406	1405.346558
4380.992337	0.099144	0.211406	1493.485840
4380.993277	0.098485	0.211406	1586.061890
4382.004682	0.728243	0.204135	321.155334
4382.005645	0.336954	0.204135	645.642334
4382.006550	0.098064	0.204135	734.390259
4382.007447	0.100551	0.204135	824.584106
4382.008337	0.099917	0.204135	913.510254
4382.009276	0.098708	0.204135	1006.197510
4382.010186	0.099386	0.204135	1096.638794
4382.011087	0.100206	0.204135	1186.924683
4382.011995	0.099434	0.204135	1277.210449
4382.012926	0.098628	0.204135	1369.033081
4382.013833	0.099580	0.204135	1459.352173
4382.014721	0.099822	0.204135	1547.993896
4383.015946	0.723131	0.208272	365.181183
4383.016871	0.397456	0.208272	732.828003
4383.017763	0.099584	0.208272	821.656677
4383.018650	0.101191	0.208272	911.413452
4383.019592	0.098807	0.208272	1004.489990
4383.020507	0.100214	0.208272	1096.185425
4383.021414	0.100236	0.208272	1187.099121
4383.022314	0.099342	0.208272	1276.506958
4383.023258	0.098921	0.208272	1369.888306
4383.024158	0.099492	0.208272	1459.431274
4383.025048	0.100510	0.208272	1548.885376
4383.025998	0.098895	0.208272	1642.835815
4384.040913	0.700078	0.201472	308.734467
4384.041839	0.415228	0.201472	693.235840
4384.042768	0.098112	0.201472	784.381470
4384.043682	0.099771	0.201472	875.571716
4384.044583	0.101125	0.201472	966.685791
4384.045514	0.099232	0.201472	1059.070923
4384.046413	0.098840	0.201472	1147.928345
4384.047315	0.100111	0.201472	1238.228516
4384.048209	0.099683	0.201472	1327.344727
4384.049146	0.098738	0.201472	1419.862061
4384.050042	0.099283	0.201472	1508.820068
4384.050945	0.100499	0.201472	1599.570923
4385.047001	0.686682	0.206065	309.693665
4385.047904	0.398068	0.206065	669.148743
4385.048824	0.099137	0.206065	760.354736
4385.049760	0.099075	0.206065	853.088684
4385.050668	0.100492	0.206065	944.335388
4385.051556	0.100228	0.206065	1033.338135
4385.052515	0.098990	0.206065	1128.270020
4385.053415	0.099155	0.206065	1217.509766
4385.054318	0.099965	0.206065	1307.777832
4385.055202	0.099218	0.206065	1395.486084
4385.056131	0.098280	0.206065	1486.788208
4385.057033	0.099679	0.206065	1576.698608
4386.077133	0.727844	0.200530	318.795776
4386.078030	0.418792	0.200530	694.451782
4386.078989	0.098335	0.200530	788.755005
4386.079897	0.099807	0.200530	879.379883
4386.080789	0.100620	0.200530	969.133057
4386.081718	0.099536	0.200530	1061.602173
4386.082619	0.098884	0.200530	1150.696899
4386.083524	0.100338	0.200530	1241.502930
4386.084421	0.100521	0.200530	1331.670532
4386.085352	0.098782	0.200530	1423.636353
4386.086263	0.098837	0.200530	1513.676514
4386.087163	0.099855	0.200530	1603.545776
4387.081163	0.719414	0.208369	313.664520
4387.082111	0.328986	0.208369	625.542847
4387.083019	0.098701	0.208369	715.163513
4387.083913	0.099851	0.208369	804.430359
4387.084798	0.100444	0.208369	893.323608
4387.085736	0.098815	0.208369	986.011780
4387.086657	0.099100	0.208369	1077.283203
4387.087556	0.100558	0.208369	1167.684692
4387.088444	0.099723	0.208369	1256.238647
4387.089390	0.098419	0.208369	1349.343262
4387.090291	0.099390	0.208369	1438.893311
4387.091180	0.099840	0.208369	1527.651123
4388.113864	0.727738	0.199269	316.566040
4388.114812	0.405150	0.199269	700.648376
4388.115731	0.098317	0.199269	791.001343
4388.116634	0.100356	0.199269	881.623230
4388.117529	0.100254	0.199269	971.350464
4388.118471	0.099294	0.199269	1064.885864
4388.119376	0.098866	0.199269	1154.359619
4388.120272	0.100111	0.199269	1244.059204
4388.121159	0.099532	0.199269	1332.344482
4388.122101	0.098562	0.199269	1425.189941
4388.123011	0.098928	0.199269	1515.214600
4388.123906	0.099789	0.199269	1604.525635
4389.115862	0.692172	0.208260	305.247681
4389.116781	0.394464	0.208260	667.760193
4389.117679	0.100111	0.208260	757.659912
4389.118626	0.099174	0.208260	851.577271
4389.119531	0.099287	0.208260	941.432129
4389.120418	0.099800	0.208260	1029.954590
4389.121310	0.099950	0.208260	1119.109985
4389.122240	0.098730	0.208260	1210.929321
4389.123148	0.099397	0.208260	1301.181763
4389.124046	0.100140	0.208260	1391.107788
4389.124935	0.099371	0.208260	1479.448853
4389.125886	0.098599	0.208260	1573.216187
4390.148572	0.686796	0.202822	304.937256
4390.149500	0.405436	0.202822	681.181641
4390.150403	0.099888	0.202822	771.380249
4390.151335	0.099207	0.202822	863.840759
4390.152241	0.098954	0.202822	953.492981
4390.153156	0.099976	0.202822	1044.970703
4390.154049	0.099683	0.202822	1133.987305
4390.154992	0.098610	0.202822	1226.976196
4390.155895	0.098866	0.202822	1316.252197
4390.156792	0.100148	0.202822	1406.084717
4390.157681	0.099353	0.202822	1494.409546
4390.158632	0.098525	0.202822	1588.107178
4391.153112	0.719817	0.207495	321.038361
4391.154011	0.414532	0.207495	693.703064
4391.154941	0.098346	0.207495	785.164795
4391.155859	0.099452	0.207495	876.461670
4391.156769	0.099624	0.207495	967.119507
4391.157659	0.099902	0.207495	1056.032593
4391.158591	0.099067	0.207495	1148.363403
4391.159507	0.099558	0.207495	1239.558594
4391.160407	0.099749	0.207495	1329.332275
4391.161294	0.099430	0.207495	1417.526611
4391.162248	0.098767	0.207495	1511.750366
4391.163146	0.099657	0.207495	1601.242310
4392.180682	0.719681	0.202894	317.379486
4392.181664	0.409446	0.202894	719.455261
4392.182580	0.098976	0.202894	810.117126
4392.183471	0.100873	0.202894	899.994812
4392.184394	0.100258	0.202894	992.532532
4392.185296	0.099130	0.202894	1081.947510
4392.186199	0.100671	0.202894	1172.853760
4392.187099	0.099529	0.202894	1262.429687
4392.188032	0.098591	0.202894	1354.415405
4392.188938	0.098727	0.202894	1443.861938
4392.189843	0.099749	0.202894	1534.134399
4392.190736	0.099390	0.202894	1622.889404
4393.192932	0.692406	0.205098	314.352325
4393.193835	0.413650	0.205098	687.878174
4393.194763	0.098518	0.205098	779.302917
4393.195668	0.099430	0.205098	869.286987
4393.196570	0.101243	0.205098	960.607910
4393.197458	0.100287	0.205098	1049.662598
4393.198392	0.099005	0.205098	1142.133423
4393.199305	0.099888	0.205098	1233.330933
4393.200207	0.099697	0.205098	1323.257812
4393.201098	0.099690	0.205098	1412.081543
4393.202059	0.098679	0.205098	1506.912231
4393.202968	0.099822	0.205098	1597.650269
4394.209736	0.705483	0.203954	309.001709
4394.210631	0.420593	0.203954	685.432678
4394.211611	0.098214	0.203954	781.682495
4394.212526	0.099602	0.203954	872.818359
4394.213423	0.099741	0.203954	962.286255
4394.214362	0.099792	0.203954	1055.991455
4394.215256	0.098969	0.203954	1144.469238
4394.216153	0.100382	0.203954	1234.511963
4394.217042	0.100426	0.203954	1323.790649
4394.217994	0.098928	0.203954	1417.970337
4394.218883	0.099353	0.203954	1506.295166
4394.219787	0.100261	0.203954	1596.931274
4395.233236	0.717422	0.202761	319.252747
4395.234130	0.411061	0.202761	686.741089
4395.235075	0.098302	0.202761	779.636475
4395.235987	0.100184	0.202761	871.004578
4395.236910	0.100107	0.202761	963.403748
4395.237810	0.099573	0.202761	1053.019287
4395.238757	0.098906	0.202761	1146.683472
4395.239665	0.100067	0.202761	1237.544434
4395.240558	0.099983	0.202761	1326.829224
4395.241504	0.098518	0.202761	1420.027344
4395.242416	0.099294	0.202761	1510.583862
4395.243314	0.099415	0.202761	1599.858765
4396.237818	0.576266	0.202649	274.302551
4396.238740	0.417166	0.202649	658.929199
4396.239645	0.100470	0.202649	749.854492
4396.240531	0.099855	0.202649	838.325806
4396.241485	0.098818	0.202649	932.598511
4396.242382	0.099829	0.202649	1022.145203
4396.243278	0.100591	0.202649	1112.274536
4396.244209	0.098712	0.202649	1204.175537
4396.245118	0.098793	0.202649	1293.978149
4396.246019	0.101353	0.202649	1385.296753
4396.246913	0.099536	0.202649	1474.282104
4396.247870	0.098679	0.202649	1568.718140
4397.275111	0.659377	0.200796	300.016724
4397.276017	0.344187	0.200796	611.850159
4397.276908	0.099170	0.200796	700.210571
4397.277859	0.099100	0.200796	794.455017
4397.278762	0.099192	0.200796	884.025269
4397.279657	0.099727	0.200796	973.280518
4397.280549	0.099591	0.200796	1062.115723
4397.281487	0.098884	0.200796	1154.869141
4397.282400	0.099840	0.200796	1246.023193
4397.283300	0.099342	0.200796	1335.431030
4397.284188	0.099016	0.200796	1423.357300
4397.285138	0.098617	0.200796	1517.043457
4398.267381	0.666573	0.201211	319.288696
4398.268311	0.410112	0.201211	700.693115
4398.269214	0.099814	0.201211	790.825562
4398.270100	0.100375	0.201211	879.757568
4398.271044	0.098840	0.201211	973.062866
4398.271949	0.098884	0.201211	1062.553101
4398.272839	0.100833	0.201211	1152.294067
4398.273753	0.099060	0.201211	1242.834961
4398.274670	0.098676	0.201211	1333.320435
4398.275575	0.099661	0.201211	1423.513306
4398.276468	0.100576	0.201211	1513.327881
4398.277384	0.098580	0.201211	1603.627441
4399.314395	0.686539	0.200965	307.569611
4399.315314	0.406714	0.200965	681.339661
4399.316212	0.100118	0.200965	771.245972
4399.317153	0.099456	0.200965	864.833679
4399.318059	0.099159	0.200965	954.671692
4399.318963	0.099899	0.200965	1044.980103
4399.319853	0.099540	0.200965	1133.570557
4399.320821	0.098694	0.200965	1229.106201
4399.321714	0.099229	0.200965	1317.717285
4399.322621	0.100082	0.200965	1408.491455
4399.323509	0.099565	0.200965	1496.905518
4399.324454	0.098657	0.200965	1590.136597
4400.298446	0.705560	0.200477	313.268768
4400.299344	0.427452	0.200477	697.120972
4400.300278	0.098683	0.200477	789.290771
4400.301198	0.098965	0.200477	880.338440
4400.302109	0.100078	0.200477	971.509583
4400.303004	0.099741	0.200477	1060.777954
4400.303956	0.099250	0.200477	1155.264404
4400.304859	0.098818	0.200477	1244.497314
4400.305757	0.099705	0.200477	1334.031982
4400.306644	0.099338	0.200477	1422.145142
4400.307577	0.098525	0.200477	1514.069336
4400.308481	0.099115	0.200477	1603.669312
4401.352144	0.728185	0.198487	321.129517
4401.353035	0.417872	0.198487	693.453735
4401.353972	0.098218	0.198487	785.483765
4401.354888	0.099569	0.198487	876.689026
4401.355795	0.100126	0.198487	967.503052
4401.356684	0.099371	0.198487	1055.844116
4401.357634	0.098767	0.198487	1149.672852
4401.358538	0.099456	0.198487	1239.580688
4401.359437	0.100851	0.198487	1330.245605
4401.360370	0.098972	0.198487	1422.586670
4401.361271	0.098782	0.198487	1511.588989
4401.362169	0.100844	0.198487	1602.146484
4402.332111	0.719290	0.200312	317.206696
4402.333004	0.414906	0.200312	687.717773
4402.333949	0.098423	0.200312	780.727356
4402.334869	0.099836	0.200312	872.576843
4402.335768	0.100653	0.200312	963.063965
4402.336691	0.099086	0.200312	1054.520020
4402.337617	0.098936	0.200312	1146.134277
4402.338522	0.100122	0.200312	1236.744751
4402.339419	0.099653	0.200312	1326.133789
4402.340362	0.099075	0.200312	1419.561279
4402.341262	0.098683	0.200312	1508.375854
4402.342158	0.100386	0.200312	1598.321533
4403.387869	0.677183	0.196139	303.377808
4403.388776	0.400990	0.196139	667.075684
4403.389663	0.099441	0.196139	755.279785
4403.390630	0.098756	0.196139	850.776917
4403.391533	0.099250	0.196139	940.400085
4403.392432	0.101246	0.196139	1031.420532
4403.393361	0.099313	0.196139	1123.682129
4403.394273	0.098793	0.196139	1213.781128
4403.395172	0.099939	0.196139	1303.626221
4403.396060	0.101122	0.196139	1393.422363
4403.397019	0.098698	0.196139	1488.073242
4403.397921	0.099514	0.196139	1577.834961
4404.366863	0.566100	0.200163	285.880402
4404.367789	0.411204	0.200163	666.654968
4404.368683	0.099470	0.200163	755.581360
4404.369575	0.099686	0.200163	844.501526
4404.370514	0.098793	0.200163	937.267883
4404.371423	0.099518	0.200163	1027.729614
4404.372318	0.100316	0.200163	1117.512573
4404.373254	0.098892	0.200163	1210.075073
4404.374156	0.098701	0.200163	1299.103516
4404.375064	0.099613	0.200163	1389.552124
4404.375958	0.099672	0.200163	1478.658569
4404.376895	0.098577	0.200163	1571.024902
4405.422549	0.705820	0.194524	312.678406
4405.423516	0.408014	0.194524	707.227844
4405.424422	0.098408	0.194524	796.385681
4405.425317	0.100184	0.194524	886.050659
4405.426203	0.100265	0.194524	974.885376
4405.427144	0.098921	0.194524	1067.969971
4405.428061	0.099763	0.194524	1159.452759
4405.428961	0.100225	0.194524	1249.654907
4405.429891	0.099456	0.194524	1342.148560
4405.430797	0.098632	0.194524	1431.508789
4405.431698	0.099855	0.194524	1521.477905
4405.432585	0.100181	0.194524	1610.338135
4406.401994	0.718762	0.199853	312.661560
4406.402916	0.412075	0.199853	692.594849
4406.403857	0.098057	0.199853	784.866150
4406.404765	0.099778	0.199853	875.464417
4406.405664	0.100107	0.199853	965.460999
4406.406615	0.099316	0.199853	1059.910889
4406.407518	0.098734	0.199853	1149.067871
4406.408418	0.100298	0.199853	1239.335937
4406.409308	0.099833	0.199853	1328.187134
4406.410245	0.098756	0.199853	1420.721558
4406.411153	0.098877	0.199853	1510.501831
4406.412048	0.099913	0.199853	1599.924316
4407.456240	0.714639	0.194632	338.738708
4407.457174	0.406681	0.194632	718.578613
4407.458088	0.099247	0.194632	809.290222
4407.458982	0.100430	0.194632	899.074341
4407.459933	0.099012	0.194632	993.235168
4407.460836	0.099104	0.194632	1082.726074
4407.461729	0.100144	0.194632	1172.154663
4407.462620	0.099584	0.194632	1260.883789
4407.463569	0.098646	0.194632	1354.499023
4407.464477	0.099056	0.194632	1444.442261
4407.465378	0.100338	0.194632	1534.846924
4407.466304	0.099071	0.194632	1626.586670
4408.437221	0.645132	0.201392	294.825256
4408.438121	0.416027	0.201392	669.249146
4408.439009	0.099434	0.201392	757.546143
4408.439954	0.098745	0.201392	850.860291
4408.440856	0.098961	0.201392	940.123291
4408.441748	0.101052	0.201392	1030.261841
4408.442640	0.099792	0.201392	1119.276733
4408.443594	0.098851	0.201392	1213.580933
4408.444506	0.099778	0.201392	1304.578369
4408.445407	0.100254	0.201392	1394.907104
4408.446343	0.099243	0.201392	1487.798706
4408.447243	0.098661	0.201392	1576.593506
4409.490396	0.686338	0.196264	310.224731
4409.491292	0.414525	0.196264	681.639282
4409.492180	0.099346	0.196264	769.858276
4409.493125	0.098778	0.196264	863.203552
4409.494034	0.099419	0.196264	953.575378
4409.494939	0.100045	0.196264	1044.116211
4409.495827	0.099419	0.196264	1132.400269
4409.496778	0.098756	0.196264	1226.317383
4409.497685	0.099141	0.196264	1316.237915
4409.498583	0.099968	0.196264	1406.009399
4409.499521	0.098943	0.196264	1498.817871
4409.500418	0.098540	0.196264	1587.208252
4410.471881	0.727874	0.196848	317.352875
4410.472841	0.360970	0.196848	663.884521
4410.473751	0.098112	0.196848	753.166077
4410.474645	0.100887	0.196848	843.359436
4410.475530	0.099423	0.196848	931.348450
4410.476476	0.098760	0.196848	1024.775146
4410.477384	0.099141	0.196848	1114.794800
4410.478286	0.101093	0.196848	1205.980225
4410.479204	0.099196	0.196848	1297.041748
4410.480127	0.098672	0.196848	1388.115845
4410.481033	0.099375	0.196848	1478.149536
4410.481930	0.100294	0.196848	1568.113403
4411.525068	0.727954	0.194270	319.571838
4411.526031	0.312590	0.194270	620.596313
4411.526947	0.098357	0.194270	710.691284
4411.527851	0.099565	0.194270	800.698425
4411.528741	0.099580	0.194270	889.324707
4411.529700	0.098972	0.194270	984.239014
4411.530611	0.099152	0.194270	1074.566162
4411.531505	0.100071	0.194270	1164.029419
4411.532417	0.099540	0.194270	1254.809692
4411.533334	0.098610	0.194270	1345.234741
4411.534245	0.098687	0.194270	1435.138184
4411.535132	0.099935	0.194270	1523.780762
4412.506575	0.710640	0.197472	313.392090
4412.507506	0.406088	0.197472	691.459717
4412.508399	0.100210	0.197472	780.947205
4412.509352	0.098804	0.197472	875.107117
4412.510256	0.099291	0.197472	964.865967
4412.511154	0.100594	0.197472	1055.199829
4412.512042	0.100594	0.197472	1144.527710
4412.512987	0.098833	0.197472	1237.924927
4412.513895	0.099855	0.197472	1328.593018
4412.514790	0.099818	0.197472	1417.930176
4412.515710	0.099210	0.197472	1509.203613
4412.516629	0.098514	0.197472	1599.738403
4413.560274	0.686400	0.188956	305.448090
4413.561183	0.410566	0.188956	678.652954
4413.562071	0.099203	0.188956	766.745117
4413.563018	0.098892	0.188956	860.395447
4413.563942	0.099397	0.188956	952.238220
4413.564835	0.100250	0.188956	1041.761719
4413.565723	0.099745	0.188956	1130.335205
4413.566674	0.098665	0.188956	1224.165161
4413.567567	0.100129	0.188956	1313.580688
4413.568456	0.100638	0.188956	1403.048218
4413.569388	0.099620	0.188956	1495.894409
4413.570301	0.098917	0.188956	1586.205811
4414.540763	0.693812	0.197891	310.827881
4414.541661	0.426138	0.197891	693.499512
4414.542608	0.098181	0.197891	786.477051
4414.543516	0.099525	0.197891	876.845886
4414.544417	0.100353	0.197891	967.263733
4414.545305	0.099459	0.197891	1055.583496
4414.546264	0.099009	0.197891	1150.532959
4414.547181	0.099807	0.197891	1242.056152
4414.548080	0.099836	0.197891	1331.809082
4414.549015	0.098756	0.197891	1424.145996
4414.549912	0.098533	0.197891	1512.529785
4414.550812	0.100338	0.197891	1602.834106
4415.596030	0.703623	0.194274	343.368011
4415.596968	0.385342	0.194274	704.818604
4415.597868	0.100887	0.194274	795.617310
4415.598760	0.099829	0.194274	884.664856
4415.599724	0.098815	0.194274	979.922241
4415.600622	0.100023	0.194274	1069.743042
4415.601545	0.100800	0.194274	1162.781006
4415.602442	0.098954	0.194274	1251.542603
4415.603378	0.099093	0.194274	1344.293701
4415.604274	0.099430	0.194274	1433.382935
4415.605165	0.100052	0.194274	1522.529663
4415.606101	0.098730	0.194274	1614.941406
4416.574413	0.720762	0.195821	317.135162
4416.575363	0.363706	0.195821	662.655884
4416.576276	0.098379	0.195821	752.475830
4416.577173	0.100532	0.195821	842.653259
4416.578058	0.101082	0.195821	932.110413
4416.578986	0.098936	0.195821	1023.922607
4416.579894	0.098870	0.195821	1113.696289
4416.580799	0.100181	0.195821	1204.359741
4416.581686	0.099434	0.195821	1292.557373
4416.582636	0.098591	0.195821	1386.219116
4416.583543	0.098895	0.195821	1475.917114
4416.584433	0.099888	0.195821	1564.817139
4417.631189	0.720040	0.190564	320.417908
4417.632080	0.402997	0.190564	679.488037
4417.633041	0.098049	0.190564	773.713440
4417.633939	0.099357	0.190564	862.935730
4417.634826	0.099921	0.190564	951.565369
4417.635760	0.099163	0.190564	1044.183228
4417.636672	0.098954	0.190564	1134.429199
4417.637569	0.099543	0.190564	1223.719727
4417.638462	0.099565	0.190564	1312.631592
4417.639419	0.098591	0.190564	1406.983521
4417.640321	0.099375	0.190564	1496.619751
4417.641217	0.099884	0.190564	1586.115845
4418.609630	0.637467	0.197775	292.597351
4418.610541	0.404117	0.197775	660.748291
4418.611426	0.099207	0.197775	748.546082
4418.612388	0.099027	0.197775	843.810181
4418.613292	0.099829	0.197775	934.055664
4418.614180	0.099771	0.197775	1022.651855
4418.615110	0.099185	0.197775	1114.893555
4418.616015	0.098654	0.197775	1204.175049
4418.616916	0.100704	0.197775	1294.909668
4418.617808	0.099635	0.197775	1383.784058
4418.618736	0.098661	0.197775	1475.341309
4418.619639	0.098577	0.197775	1564.356079
4419.664841	0.713921	0.192888	311.983429
4419.665828	0.378197	0.192888	685.263916
4419.666738	0.098936	0.192888	775.295288
4419.667635	0.099976	0.192888	864.973389
4419.668522	0.099554	0.192888	953.278198
4419.669454	0.098650	0.192888	1045.219849
4419.670364	0.099814	0.192888	1136.051025
4419.671256	0.100122	0.192888	1225.359863
4419.672193	0.099401	0.192888	1318.498291
4419.673106	0.099203	0.192888	1409.070557
4419.674009	0.100129	0.192888	1499.487427
4419.674898	0.099884	0.192888	1588.284302
4420.645376	0.576746	0.194427	276.261139
4420.646305	0.394849	0.194427	643.075562
4420.647215	0.099448	0.194427	733.573486
4420.648106	0.099155	0.194427	821.920837
4420.649052	0.098811	0.194427	915.396057
4420.649961	0.099514	0.194427	1005.854431
4420.650850	0.099404	0.194427	1094.224854
4420.651793	0.098994	0.194427	1187.576294
4420.652698	0.098361	0.194427	1276.592651
4420.653595	0.099397	0.194427	1365.751709
4420.654484	0.099232	0.194427	1453.969116
4420.655428	0.098624	0.194427	1547.070435
4421.696477	0.700858	0.191829	318.189575
4421.697377	0.409167	0.191829	686.440308
4421.698332	0.098086	0.191829	780.112366
4421.699233	0.098639	0.191829	868.986023
4421.700132	0.100038	0.191829	958.920044
4421.701020	0.099990	0.191829	1047.711426
4421.701947	0.098459	0.191829	1138.983398
4421.702846	0.098866	0.191829	1227.863892
4421.703755	0.099774	0.191829	1318.558594
4421.704649	0.099979	0.191829	1407.940063
4421.705602	0.098566	0.191829	1501.873169
4421.706507	0.099415	0.191829	1591.843994
4422.683097	0.695570	0.192288	310.224243
4422.684000	0.413928	0.192288	684.001404
4422.684952	0.098624	0.192288	777.891724
4422.685859	0.098895	0.192288	867.589722
4422.686764	0.100737	0.192288	958.756958
4422.687650	0.099382	0.192288	1046.809692
4422.688595	0.098661	0.192288	1140.044189
4422.689507	0.099192	0.192288	1230.507202
4422.690400	0.100162	0.192288	1319.952148
4422.691325	0.099419	0.192288	1411.914673
4422.692239	0.098577	0.192288	1502.013794
4422.693155	0.099910	0.192288	1593.531006
4423.726538	0.719213	0.193799	315.734314
4423.727433	0.410489	0.193799	683.122437
4423.728369	0.098064	0.193799	774.910278
4423.729286	0.099239	0.193799	865.912903
4423.730187	0.100071	0.193799	956.076660
4423.731072	0.099269	0.193799	1043.929565
4423.732019	0.098712	0.193799	1137.410034
4423.732920	0.099261	0.193799	1226.844604
4423.733809	0.099877	0.193799	1315.635010
4423.734753	0.098877	0.193799	1408.974854
4423.735647	0.098485	0.193799	1497.020508
4423.736548	0.099730	0.193799	1586.877441
4424.722922	0.649739	0.187768	298.230072
4424.723826	0.409281	0.187768	668.220093
4424.724718	0.099115	0.187768	756.630676
4424.725661	0.099067	0.187768	850.051208
4424.726575	0.099862	0.187768	941.325134
4424.727503	0.099675	0.187768	1033.823853
4424.728391	0.099983	0.187768	1122.608643
4424.729357	0.099250	0.187768	1218.484619
4424.730259	0.100093	0.187768	1308.768311
4424.731150	0.099679	0.187768	1397.582275
4424.732092	0.099250	0.187768	1491.076172
4424.733006	0.099445	0.187768	1581.968506
4425.755613	0.672803	0.191261	302.761200
4425.756518	0.395339	0.191261	660.543335
4425.757411	0.099038	0.191261	748.984314
4425.758374	0.098807	0.191261	844.135803
4425.759276	0.099664	0.191261	934.033020
4425.760177	0.101030	0.191261	1025.061279
4425.761110	0.099646	0.191261	1118.031006
4425.762019	0.098749	0.191261	1207.793701
4425.762929	0.100276	0.191261	1299.044800
4425.763822	0.099979	0.191261	1388.326294
4425.764755	0.098427	0.191261	1480.158203
4425.765653	0.098599	0.191261	1568.699829
4426.764239	0.732711	0.189935	320.927490
4426.765198	0.406285	0.189935	710.555176
4426.766119	0.099675	0.189935	802.356140
4426.767019	0.100027	0.189935	892.380310
4426.767917	0.099822	0.189935	982.020264
4426.768860	0.098866	0.189935	1075.250854
4426.769765	0.099745	0.189935	1165.520020
4426.770659	0.100389	0.189935	1255.268188
4426.771594	0.099020	0.189935	1347.851685
4426.772495	0.099357	0.189935	1437.372070
4426.773397	0.100745	0.189935	1528.243774
4426.774288	0.099214	0.189935	1616.643311
4427.784660	0.677772	0.197013	298.219788
4427.785589	0.416656	0.197013	685.293701
4427.786494	0.099987	0.197013	775.781555
4427.787384	0.099968	0.197013	864.753296
4427.788336	0.099108	0.197013	959.103760
4427.789240	0.099298	0.197013	1048.869263
4427.790130	0.100609	0.197013	1138.411377
4427.791072	0.099148	0.197013	1231.808716
4427.791975	0.098562	0.197013	1320.810181
4427.792883	0.100085	0.197013	1411.687744
4427.793775	0.100082	0.197013	1500.960693
4427.794714	0.098654	0.197013	1593.596436
4428.804593	0.608628	0.187256	285.446503
4428.805511	0.382357	0.187256	636.450439
4428.806410	0.099196	0.187256	725.627258
4428.807314	0.099584	0.187256	815.650940
4428.808223	0.098928	0.187256	905.576660
4428.809132	0.099276	0.187256	995.818665
4428.810027	0.099716	0.187256	1085.064087
4428.810963	0.098917	0.187256	1177.650635
4428.811867	0.098481	0.187256	1266.677856
4428.812771	0.099756	0.187256	1356.857178
4428.813659	0.099822	0.187256	1445.498901
4428.814604	0.098364	0.187256	1538.453125
4429.814748	0.678051	0.196042	304.444672
4429.815681	0.354507	0.196042	635.199524
4429.816572	0.099375	0.196042	723.742676
4429.817503	0.098859	0.196042	815.780090
4429.818414	0.098698	0.196042	905.693542
4429.819313	0.099895	0.196042	995.499146
4429.820204	0.100122	0.196042	1084.707886
4429.821151	0.098749	0.196042	1178.223022
4429.822049	0.099218	0.196042	1267.320312
4429.822952	0.099781	0.196042	1357.422974
4429.823843	0.099199	0.196042	1445.809448
4429.824788	0.098701	0.196042	1539.082031
4430.842834	0.714276	0.189899	317.138611
4430.843730	0.421161	0.189899	694.498779
4430.844678	0.098177	0.189899	787.571045
4430.845588	0.099708	0.189899	878.305542
4430.846490	0.100272	0.189899	968.751099
4430.847412	0.098719	0.189899	1059.770508
4430.848318	0.098595	0.189899	1149.097534
4430.849218	0.100005	0.189899	1239.101929
4430.850105	0.099203	0.189899	1327.094849
4430.851046	0.098394	0.189899	1419.683228
4430.851949	0.098862	0.189899	1508.955933
4430.852848	0.099518	0.189899	1598.422485
4431.847885	0.700983	0.194439	309.133331
4431.848872	0.395757	0.194439	699.745300
4431.849777	0.099990	0.194439	790.236450
4431.850700	0.099921	0.194439	882.463196
4431.851594	0.099796	0.194439	971.680969
4431.852556	0.099851	0.194439	1067.737671
4431.853481	0.099752	0.194439	1160.008423
4431.854368	0.099811	0.194439	1248.540527
4431.855314	0.099239	0.194439	1342.421143
4431.856204	0.100023	0.194439	1431.441772
4431.857089	0.100323	0.194439	1520.228027
4431.858024	0.098965	0.194439	1612.760132
4432.880645	0.647878	0.187184	322.643433
4432.881567	0.384811	0.187184	677.438965
4432.882458	0.098855	0.187184	765.518738
4432.883346	0.099829	0.187184	854.166992
4432.884280	0.098705	0.187184	946.357300
4432.885195	0.099031	0.187184	1036.970459
4432.886091	0.100411	0.187184	1126.939087
4432.887017	0.099276	0.187184	1218.868774
4432.887924	0.098796	0.187184	1308.477051
4432.888830	0.100276	0.187184	1399.327026
4432.889722	0.099155	0.187184	1487.773560
4432.890658	0.098635	0.187184	1580.096191
4433.881562	0.675992	0.193835	299.464661
4433.882466	0.414459	0.193835	674.135803
4433.883352	0.099514	0.193835	762.305359
4433.884297	0.098694	0.193835	855.571045
4433.885221	0.099781	0.193835	947.769165
4433.886127	0.100419	0.193835	1038.748535
4433.887017	0.099606	0.193835	1127.397583
4433.887966	0.098829	0.193835	1221.186646
4433.888863	0.099917	0.193835	1310.812134
4433.889755	0.100389	0.193835	1400.359497
4433.890672	0.099309	0.193835	1491.425903
4433.891597	0.099419	0.193835	1583.388428
4434.914772	0.700294	0.186974	309.529999
4434.915677	0.416580	0.186974	686.534546
4434.916566	0.098485	0.186974	774.087830
4434.917531	0.098800	0.186974	869.429871
4434.918442	0.099749	0.186974	960.300781
4434.919337	0.100063	0.186974	1049.857544
4434.920285	0.099045	0.186974	1143.752563
4434.921182	0.098741	0.186974	1232.323608
4434.922072	0.100653	0.186974	1321.904785
4434.922963	0.099979	0.186974	1410.986328
4434.923892	0.098646	0.186974	1502.628662
4434.924795	0.098906	0.186974	1591.941040
4435.916806	0.715510	0.191103	355.608582
4435.917731	0.413320	0.191103	737.929871
4435.918635	0.100063	0.191103	828.387268
4435.919525	0.100833	0.191103	918.128235
4435.920471	0.098969	0.191103	1011.752441
4435.921368	0.099258	0.191103	1100.786743
4435.922270	0.100067	0.191103	1191.047363
4435.923157	0.099939	0.191103	1279.693237
4435.924092	0.098815	0.191103	1372.084961
4435.925004	0.099485	0.191103	1462.815186
4435.925902	0.100309	0.191103	1552.892578
4435.926838	0.098990	0.191103	1645.547607
4436.948937	0.719897	0.189549	314.595184
4436.949853	0.394504	0.189549	675.961182
4436.950806	0.098181	0.189549	769.527832
4436.951715	0.099185	0.189549	859.686584
4436.952605	0.100195	0.189549	948.860413
4436.953538	0.099089	0.189549	1041.310791
4436.954445	0.098947	0.189549	1131.055298
4436.955348	0.100067	0.189549	1221.415894
4436.956240	0.100052	0.189549	1310.662720
4436.957186	0.098635	0.189549	1403.971680
4436.958092	0.099144	0.189549	1493.796387
4436.958988	0.099705	0.189549	1583.131714
4437.952454	0.717312	0.191740	311.313385
4437.953397	0.381346	0.191740	670.923096
4437.954313	0.098474	0.191740	761.125366
4437.955214	0.100459	0.191740	851.638916
4437.956104	0.099609	0.191740	940.291260
4437.957056	0.098965	0.191740	1034.505737
4437.957963	0.099133	0.191740	1124.419678
4437.958857	0.101019	0.191740	1214.730957
4437.959774	0.099507	0.191740	1305.978760
4437.960694	0.098602	0.191740	1396.692871
4437.961604	0.099005	0.191740	1486.787598
4437.962500	0.099767	0.191740	1576.178711
4438.982606	0.713646	0.186560	314.717987
4438.983498	0.414412	0.186560	684.373169
4438.984473	0.098829	0.186560	780.731812
4438.985377	0.100100	0.186560	871.222290
4438.986301	0.100031	0.186560	963.650513
4438.987194	0.099932	0.186560	1052.889404
4438.988140	0.099781	0.186560	1147.282715
4438.989040	0.099979	0.186560	1237.264038
4438.989930	0.100012	0.186560	1326.274902
4438.990865	0.098994	0.186560	1418.834473
4438.991777	0.099778	0.186560	1509.831909
4438.992698	0.100682	0.186560	1602.560425
4439.988186	0.675630	0.190890	304.033447
4439.989089	0.422512	0.190890	685.562012
4439.990033	0.098218	0.190890	778.279602
4439.990948	0.099423	0.190890	869.251282
4439.991856	0.099906	0.190890	959.965942
4439.992743	0.099302	0.190890	1048.046631
4439.993682	0.098657	0.190890	1140.685791
4439.994588	0.099562	0.190890	1230.888794
4439.995479	0.099521	0.190890	1319.562378
4439.996415	0.098947	0.190890	1412.176270
4439.997316	0.098372	0.190890	1500.809082
4439.998215	0.100148	0.190890	1590.841919
4441.017301	0.686184	0.187764	305.351898
4441.018214	0.394515	0.187764	665.544434
4441.019103	0.099961	0.187764	754.409729
4441.020043	0.099631	0.187764	848.063171
4441.020940	0.099390	0.187764	937.215698
4441.021839	0.100737	0.187764	1027.778564
4441.022723	0.100096	0.187764	1116.263794
4441.023661	0.098914	0.187764	1209.044678
4441.024580	0.099554	0.187764	1300.535156
4441.025486	0.100020	0.187764	1391.152832
4441.026377	0.099042	0.187764	1479.399048
4441.027328	0.098551	0.187764	1573.121094
4442.022903	0.723754	0.190125	351.020538
4442.023831	0.405824	0.190125	727.625183
4442.024735	0.100356	0.190125	818.347412
4442.025623	0.099393	0.190125	906.608643
4442.026575	0.098833	0.190125	1000.697693
4442.027478	0.099130	0.190125	1090.211792
4442.028383	0.100309	0.190125	1180.991333
4442.029271	0.099459	0.190125	1269.311157
4442.030220	0.098690	0.190125	1362.968140
4442.031130	0.099679	0.190125	1453.676025
4442.032017	0.100067	0.190125	1542.435547
4442.032961	0.099159	0.190125	1636.041626
4443.051485	0.729573	0.186535	334.873901
4443.052384	0.410244	0.186535	703.683350
4443.053334	0.098306	0.186535	797.073730
4443.054247	0.099503	0.186535	887.920105
4443.055152	0.100463	0.186535	978.838806
4443.056046	0.099811	0.186535	1068.069702
4443.057002	0.098822	0.186535	1162.543579
4443.057906	0.099954	0.186535	1252.901611
4443.058796	0.099734	0.186535	1341.664795
4443.059708	0.099027	0.186535	1431.977539
4443.060635	0.098789	0.186535	1523.555054
4443.061537	0.099452	0.186535	1613.260620
4444.057555	0.714302	0.189585	318.578583
4444.058454	0.407219	0.189585	684.668701
4444.059396	0.098423	0.189585	777.383057
4444.060306	0.098672	0.189585	867.174438
4444.061209	0.100558	0.189585	957.978149
4444.062099	0.099822	0.189585	1046.819580
4444.063043	0.098591	0.189585	1139.889771
4444.063945	0.099207	0.189585	1229.374023
4444.064844	0.100093	0.189585	1319.357422
4444.065731	0.099441	0.189585	1407.561523
4444.066661	0.098635	0.189585	1499.292358
4444.067572	0.099869	0.189585	1590.273315
4445.086671	0.693644	0.185214	306.590576
4445.087600	0.419821	0.185214	696.603882
4445.088501	0.099917	0.185214	786.629089
4445.089434	0.099005	0.185214	879.000854
4445.090339	0.099012	0.185214	968.607117
4445.091237	0.100382	0.185214	1058.750244
4445.092125	0.099741	0.185214	1147.320435
4445.093067	0.098694	0.185214	1240.290039
4445.093967	0.099324	0.185214	1329.681396
4445.094861	0.099683	0.185214	1418.797607
4445.095787	0.098954	0.185214	1510.428833
4445.096699	0.098434	0.185214	1600.200439
4446.091716	0.732440	0.192082	315.681702
4446.092691	0.369243	0.192082	675.693787
4446.093591	0.098163	0.192082	764.040344
4446.094488	0.100459	0.192082	854.152039
4446.095373	0.100184	0.192082	942.815186
4446.096315	0.098650	0.192082	1035.743408
4446.097211	0.099672	0.192082	1125.049194
4446.098107	0.099532	0.192082	1214.230225
4446.099039	0.098844	0.192082	1306.352783
4446.099948	0.098562	0.192082	1395.945679
4446.100860	0.099558	0.192082	1486.742676
4446.101758	0.099976	0.192082	1576.520752
4447.122424	0.725237	0.185834	350.289398
4447.123353	0.375092	0.185834	698.749451
4447.124255	0.099335	0.185834	788.349365
4447.125145	0.099375	0.185834	876.793091
4447.126092	0.098712	0.185834	970.273499
4447.126988	0.098947	0.185834	1058.929565
4447.127887	0.099111	0.185834	1148.030640
4447.128776	0.099265	0.185834	1236.277344
4447.129738	0.098346	0.185834	1330.886108
4447.130645	0.099126	0.185834	1420.793335
4447.131534	0.099536	0.185834	1509.281006
4447.132472	0.098676	0.185834	1601.838623
4448.125959	0.580781	0.191945	283.421265
4448.126877	0.407706	0.191945	657.695679
4448.127770	0.099935	0.191945	746.937927
4448.128663	0.099730	0.191945	835.997009
4448.129617	0.098665	0.191945	930.122986
4448.130525	0.099060	0.191945	1020.069519
4448.131432	0.099701	0.191945	1110.498291
4448.132366	0.098785	0.191945	1202.763916
4448.133268	0.098507	0.191945	1291.617310
4448.134171	0.100247	0.191945	1382.140015
4448.135063	0.099895	0.191945	1471.246338
4448.136014	0.098687	0.191945	1565.097168
4449.158608	0.714902	0.181681	317.416626
4449.159581	0.409556	0.181681	715.914307
4449.160491	0.099778	0.181681	806.712158
4449.161383	0.100554	0.181681	896.406494
4449.162327	0.098749	0.181681	989.625366
4449.163222	0.098774	0.181681	1078.028442
4449.164123	0.099862	0.181681	1168.004150
4449.165018	0.099690	0.181681	1257.226685
4449.165957	0.098690	0.181681	1349.896729
4449.166863	0.098661	0.181681	1439.283447
4449.167763	0.100583	0.181681	1529.808594
4449.168676	0.099917	0.181681	1621.032837
4450.160083	0.704275	0.189980	312.698059
4450.160993	0.414196	0.189980	689.615967
4450.161882	0.099650	0.189980	778.204529
4450.162810	0.099313	0.189980	870.366760
4450.163737	0.099437	0.189980	962.545105
4450.164630	0.099379	0.189980	1051.290283
4450.165520	0.099822	0.189980	1140.131714
4450.166447	0.098921	0.189980	1231.831421
4450.167360	0.100107	0.189980	1323.229492
4450.168286	0.100364	0.189980	1416.166382
4450.169180	0.099814	0.189980	1505.400513
4450.170141	0.099225	0.189980	1600.755615
4451.193299	0.705253	0.185951	315.953186
4451.194197	0.402708	0.185951	677.584534
4451.195108	0.098800	0.185951	767.591370
4451.196039	0.098870	0.185951	859.638977
4451.196941	0.099056	0.185951	948.987854
4451.197834	0.100225	0.185951	1038.488403
4451.198768	0.098928	0.185951	1130.887329
4451.199668	0.098881	0.185951	1219.879883
4451.200577	0.100170	0.185951	1310.934082
4451.201468	0.099078	0.185951	1399.212891
4451.202422	0.098698	0.185951	1493.370361
4451.203328	0.098932	0.185951	1583.002686
4452.194757	0.732605	0.189077	315.752747
4452.195698	0.358389	0.189077	652.996460
4452.196627	0.098851	0.189077	744.829346
4452.197533	0.099536	0.189077	835.009094
4452.198424	0.099767	0.189077	923.901367
4452.199377	0.098785	0.189077	1018.043823
4452.200287	0.100807	0.189077	1109.778076
4452.201188	0.100250	0.189077	1200.103516
4452.202079	0.099086	0.189077	1288.388916
4452.203024	0.099254	0.189077	1382.184082
4452.203936	0.100693	0.189077	1474.016479
4452.204833	0.099968	0.189077	1563.687988
4453.226455	0.704659	0.186773	316.392090
4453.227355	0.403107	0.186773	679.188110
4453.228283	0.098119	0.186773	770.242432
4453.229207	0.098580	0.186773	861.330627
4453.230116	0.099771	0.186773	952.022034
4453.231011	0.099884	0.186773	1041.418213
4453.231945	0.098723	0.186773	1133.625610
4453.232843	0.098727	0.186773	1222.282227
4453.233747	0.100316	0.186773	1312.968018
4453.234638	0.099423	0.186773	1401.553589
4453.235592	0.098544	0.186773	1495.564331
4453.236496	0.098983	0.186773	1585.045166
4454.231543	0.720355	0.188336	350.092621
4454.232474	0.391761	0.188336	714.822571
4454.233387	0.098903	0.188336	805.120605
4454.234289	0.099620	0.188336	894.978149
4454.235215	0.098771	0.188336	986.439880
4454.236122	0.098859	0.188336	1076.104736
4454.237028	0.100265	0.188336	1166.944702
4454.237917	0.099657	0.188336	1255.539795
4454.238861	0.098566	0.188336	1348.585815
4454.239770	0.098998	0.188336	1438.574829
4454.240659	0.099774	0.188336	1527.274048
4454.241589	0.098606	0.188336	1618.977539
4455.259157	0.735740	0.183716	378.905975
4455.260073	0.406439	0.183716	751.204224
4455.260992	0.099119	0.183716	842.294250
4455.261887	0.100342	0.183716	932.100159
4455.262816	0.098965	0.183716	1024.038452
4455.263725	0.099741	0.183716	1114.703247
4455.264650	0.100052	0.183716	1207.251831
4455.265541	0.099419	0.183716	1295.834106
4455.266498	0.099093	0.183716	1390.666138
4455.267402	0.099628	0.183716	1480.729614
4455.268292	0.099756	0.183716	1569.512329
4455.269225	0.098906	0.183716	1661.791870
4456.271371	0.715170	0.187978	359.730347
4456.272296	0.411552	0.187978	740.415527
4456.273200	0.099203	0.187978	830.094910
4456.274097	0.100367	0.187978	920.124512
4456.275029	0.098840	0.187978	1012.243713
4456.275940	0.098840	0.187978	1102.287231
4456.276846	0.099921	0.187978	1192.815308
4456.277739	0.099170	0.187978	1281.374023
4456.278676	0.098573	0.187978	1373.736938
4456.279586	0.098903	0.187978	1463.738281
4456.280483	0.100107	0.187978	1553.534668
4456.281422	0.099532	0.187978	1646.995605
4457.288185	0.623112	0.184066	300.339752
4457.289111	0.402964	0.184066	673.484314
4457.290014	0.099236	0.184066	763.094299
4457.290906	0.099554	0.184066	851.896851
4457.291859	0.098676	0.184066	945.934631
4457.292763	0.099218	0.184066	1035.627319
4457.293654	0.099650	0.184066	1124.415161
4457.294580	0.099430	0.184066	1216.487305
4457.295493	0.098588	0.184066	1306.497803
4457.296401	0.099650	0.184066	1396.979736
4457.297297	0.100243	0.184066	1486.797363
4457.298230	0.098525	0.184066	1578.721558
4458.311176	0.729316	0.184928	365.387512
4458.312108	0.398811	0.184928	737.079346
4458.313000	0.099078	0.184928	825.457275
4458.313885	0.100649	0.184928	914.531982
4458.314822	0.098950	0.184928	1007.248291
4458.315733	0.099280	0.184928	1097.692139
4458.316639	0.100485	0.184928	1188.731201
4458.317529	0.099939	0.184928	1277.676880
4458.318477	0.098698	0.184928	1371.242065
4458.319377	0.099159	0.184928	1460.485107
4458.320279	0.099814	0.184928	1550.517700
4458.321200	0.099968	0.184928	1642.588501
4459.317198	0.728005	0.186060	322.506409
4459.318177	0.400386	0.186060	714.484009
4459.319078	0.098976	0.186060	803.661255
4459.319986	0.100184	0.186060	894.628601
4459.320876	0.099456	0.186060	983.144043
4459.321828	0.098848	0.186060	1077.247070
4459.322733	0.099639	0.186060	1167.420044
4459.323633	0.099866	0.186060	1257.299194
4459.324555	0.098862	0.186060	1348.450195
4459.325461	0.098342	0.186060	1437.548340
4459.326354	0.100499	0.186060	1527.294189
4459.327241	0.099833	0.186060	1615.845825
4460.352001	0.689561	0.182721	339.263794
4460.352925	0.400243	0.182721	709.088257
4460.353857	0.099749	0.182721	802.053894
4460.354748	0.099976	0.182721	891.132141
4460.355697	0.099595	0.182721	985.647522
4460.356596	0.100250	0.182721	1075.772461
4460.357486	0.100258	0.182721	1165.001709
4460.358399	0.099434	0.182721	1255.784546
4460.359350	0.099397	0.182721	1350.311035
4460.360254	0.100104	0.182721	1440.804810
4460.361144	0.099902	0.182721	1529.717896
4460.362077	0.098639	0.182721	1621.748047
4461.346765	0.717913	0.184344	313.727814
4461.347713	0.349124	0.184344	644.696899
4461.348621	0.098364	0.184344	734.011658
4461.349528	0.100521	0.184344	825.184448
4461.350424	0.099675	0.184344	914.493530
4461.351373	0.098763	0.184344	1008.220032
4461.352281	0.099207	0.184344	1098.299561
4461.353179	0.100620	0.184344	1188.656372
4461.354082	0.099108	0.184344	1278.150635
4461.355009	0.098536	0.184344	1369.493896
4461.355919	0.099489	0.184344	1460.028442
4461.356806	0.099994	0.184344	1548.723022
4462.391312	0.734337	0.179828	373.777618
4462.392233	0.388572	0.179828	731.652222
4462.393135	0.099115	0.179828	821.053955
4462.394028	0.099760	0.179828	910.139221
4462.394963	0.098749	0.179828	1002.469299
4462.395878	0.099261	0.179828	1093.293579
4462.396781	0.099752	0.179828	1183.369873
4462.397673	0.099749	0.179828	1272.345581
4462.398618	0.098606	0.179828	1365.528198
4462.399515	0.099521	0.179828	1454.798950
4462.400402	0.099760	0.179828	1543.285645
4462.401352	0.098796	0.179828	1637.142212
4463.377404	0.719879	0.182318	353.460663
4463.378340	0.413353	0.182318	740.359375
4463.379243	0.099877	0.182318	830.548035
4463.380131	0.100020	0.182318	919.365356
4463.381068	0.098870	0.182318	1012.006226
4463.381972	0.099302	0.182318	1101.775024
4463.382881	0.100400	0.182318	1193.038940
4463.383771	0.099313	0.182318	1281.427246
4463.384717	0.098745	0.182318	1374.840088
4463.385627	0.100386	0.182318	1466.191162
4463.386519	0.099979	0.182318	1555.372681
4463.387445	0.099089	0.182318	1647.129395
4464.429526	0.691626	0.180392	307.773560
4464.430418	0.429511	0.180392	690.896973
4464.431379	0.098156	0.180392	785.224426
4464.432291	0.100400	0.180392	876.789551
4464.433192	0.099880	0.180392	966.781738
4464.434080	0.099723	0.180392	1055.335693
4464.435026	0.098833	0.180392	1148.831665
4464.435920	0.100514	0.180392	1238.691162
4464.436809	0.100426	0.180392	1327.969849
4464.437737	0.098661	0.180392	1419.527100
4464.438649	0.099236	0.180392	1510.030151
4464.439552	0.099207	0.180392	1599.613647
4465.408984	0.700371	0.182878	313.766235
4465.409878	0.416173	0.182878	685.824951
4465.410821	0.097972	0.182878	778.212952
4465.411733	0.099023	0.182878	868.522339
4465.412632	0.100437	0.182878	958.815186
4465.413519	0.100082	0.182878	1047.587769
4465.414468	0.098741	0.182878	1141.293457
4465.415370	0.099485	0.182878	1231.028809
4465.416269	0.099866	0.182878	1320.808105
4465.417216	0.099349	0.182878	1414.891968
4465.418107	0.098613	0.182878	1502.756348
4465.419008	0.100140	0.182878	1592.982788
4466.465240	0.689934	0.178954	309.090454
4466.466147	0.406278	0.178954	677.584656
4466.467034	0.099547	0.178954	765.882935
4466.467991	0.098921	0.178954	860.550232
4466.468887	0.101078	0.178954	951.116028
4466.469778	0.099672	0.178954	1039.923462
4466.470685	0.099565	0.178954	1130.229248
4466.471599	0.098855	0.178954	1220.582764
4466.472507	0.099423	0.178954	1310.858521
4466.473402	0.099423	0.178954	1399.841797
4466.474341	0.098683	0.178954	1492.505005
4466.475256	0.099741	0.178954	1583.768188
4467.443720	0.730148	0.182745	364.343689
4467.444636	0.401224	0.182745	731.865234
4467.445536	0.099767	0.182745	821.655396
4467.446427	0.100620	0.182745	911.307922
4467.447363	0.098921	0.182745	1003.897888
4467.448272	0.099342	0.182745	1094.199829
4467.449175	0.100862	0.182745	1185.278076
4467.450062	0.099353	0.182745	1273.404175
4467.451015	0.098745	0.182745	1367.508301
4467.451920	0.099291	0.182745	1457.366455
4467.452809	0.099408	0.182745	1545.740112
4467.453749	0.099067	0.182745	1638.863403
4468.501465	0.672576	0.179885	302.659058
4468.502371	0.415455	0.179885	679.061584
4468.503256	0.098595	0.179885	766.318115
4468.504206	0.098639	0.179885	860.025085
4468.505106	0.099661	0.179885	949.719666
4468.506002	0.099529	0.179885	1038.897461
4468.506934	0.098855	0.179885	1131.030273
4468.507846	0.098448	0.179885	1220.815308
4468.508741	0.100020	0.179885	1310.332764
4468.509635	0.100093	0.179885	1399.815674
4468.510586	0.098518	0.179885	1493.506348
4468.511490	0.099042	0.179885	1583.040039
4469.477839	0.694863	0.184038	306.434692
4469.478740	0.419945	0.184038	684.805176
4469.479625	0.099679	0.184038	773.021057
4469.480589	0.099031	0.184038	868.486694
4469.481496	0.100225	0.184038	959.390381
4469.482393	0.100144	0.184038	1049.219604
4469.483306	0.099983	0.184038	1140.504028
4469.484226	0.098892	0.184038	1231.484253
4469.485142	0.099730	0.184038	1322.837158
4469.486047	0.100162	0.184038	1413.484131
4469.486981	0.098478	0.184038	1505.462402
4469.487887	0.098676	0.184038	1594.862427
4470.535136	0.663483	0.178193	305.202026
4470.536030	0.404117	0.178193	666.483032
4470.536986	0.098086	0.178193	760.253174
4470.537891	0.098840	0.178193	849.703674
4470.538798	0.099661	0.178193	940.095886
4470.539683	0.099122	0.178193	1027.819092
4470.540619	0.098459	0.178193	1119.977173
4470.541529	0.098888	0.178193	1209.965210
4470.542427	0.099379	0.178193	1299.207275
4470.543367	0.099060	0.178193	1392.323730
4470.544279	0.098562	0.178193	1482.212280
4470.545180	0.099924	0.178193	1572.244141
4471.513036	0.707952	0.185234	314.330536
4471.514014	0.399232	0.185234	704.779602
4471.514933	0.098774	0.185234	795.553284
4471.515823	0.100184	0.185234	884.717346
4471.516760	0.099214	0.185234	977.680725
4471.517666	0.098848	0.185234	1067.236694
4471.518568	0.099976	0.185234	1157.414673
4471.519459	0.099584	0.185234	1246.143799
4471.520415	0.098525	0.185234	1340.334106
4471.521324	0.098829	0.185234	1430.169922
4471.522226	0.099723	0.185234	1520.119995
4471.523153	0.098888	0.185234	1611.789062
4472.570335	0.686755	0.181895	306.292877
4472.571264	0.398119	0.181895	676.145386
4472.572162	0.099141	0.181895	765.173645
4472.573104	0.099056	0.181895	858.484741
4472.574007	0.098716	0.181895	947.625122
4472.574904	0.099543	0.181895	1036.915649
4472.575798	0.100536	0.181895	1126.794678
4472.576745	0.098657	0.181895	1220.223022
4472.577650	0.098936	0.181895	1309.759644
4472.578547	0.099976	0.181895	1399.437744
4472.579434	0.099426	0.181895	1487.628906
4472.580391	0.098555	0.181895	1581.945801
4473.547752	0.658803	0.184775	300.413940
4473.548657	0.412178	0.184775	673.434814
4473.549552	0.099445	0.184775	762.437683
4473.550498	0.099569	0.184775	856.630066
4473.551418	0.099642	0.184775	948.301025
4473.552319	0.099902	0.184775	1038.312988
4473.553211	0.100184	0.184775	1127.677368
4473.554133	0.098793	0.184775	1218.764282
4473.555053	0.099104	0.184775	1309.939941
4473.555969	0.099393	0.184775	1400.984253
4473.556857	0.099705	0.184775	1489.521973
4473.557803	0.099181	0.184775	1583.347168
4474.605011	0.714108	0.178181	315.635559
4474.605901	0.415928	0.178181	685.811279
4474.606842	0.097943	0.178181	777.975769
4474.607763	0.099371	0.178181	869.496765
4474.608663	0.100382	0.178181	959.840637
4474.609598	0.099078	0.178181	1052.478882
4474.610503	0.098767	0.178181	1141.863159
4474.611405	0.100822	0.178181	1232.804199
4474.612290	0.100056	0.178181	1321.353882
4474.613232	0.098708	0.178181	1414.337280
4474.614134	0.098939	0.178181	1503.580444
4474.615033	0.100071	0.178181	1593.544067
4475.581896	0.720384	0.183059	312.646851
4475.582842	0.312275	0.183059	608.059387
4475.583752	0.098196	0.183059	697.417542
4475.584652	0.099774	0.183059	787.214294
4475.585543	0.100177	0.183059	876.471985
4475.586491	0.098632	0.183059	969.974731
4475.587389	0.098555	0.183059	1058.476807
4475.588288	0.100133	0.183059	1148.496460
4475.589175	0.098855	0.183059	1236.180786
4475.590116	0.098386	0.183059	1328.762207
4475.591020	0.099060	0.183059	1418.312500
4475.591918	0.100554	0.183059	1508.610107
4476.639756	0.570172	0.180376	283.945709
4476.640682	0.386678	0.180376	642.009949
4476.641580	0.099635	0.180376	731.482178
4476.642472	0.099327	0.180376	820.082214
4476.643420	0.099012	0.180376	913.946045
4476.644327	0.100052	0.180376	1004.693665
4476.645222	0.100206	0.180376	1094.378296
4476.646155	0.099100	0.180376	1186.838867
4476.647053	0.098741	0.180376	1275.508667
4476.647951	0.099185	0.180376	1364.576416
4476.648840	0.099767	0.180376	1453.269165
4476.649791	0.098613	0.180376	1547.050415
4477.617115	0.664739	0.183236	298.467682
4477.618028	0.404590	0.183236	667.858215
4477.618919	0.099159	0.183236	756.208801
4477.619876	0.098617	0.183236	850.585205
4477.620780	0.099298	0.183236	940.350708
4477.621669	0.099602	0.183236	1028.896973
4477.622603	0.099126	0.183236	1121.480591
4477.623503	0.098643	0.183236	1210.258911
4477.624402	0.099760	0.183236	1299.942749
4477.625290	0.100529	0.183236	1389.212158
4477.626225	0.098738	0.183236	1481.531982
4477.627126	0.098701	0.183236	1570.461792
4478.674908	0.714584	0.175917	322.277252
4478.675811	0.401898	0.175917	685.191284
4478.676696	0.099265	0.175917	773.040955
4478.677659	0.099811	0.175917	869.158752
4478.678574	0.100371	0.175917	960.998291
4478.679468	0.100430	0.175917	1050.782471
4478.680421	0.099137	0.175917	1145.260010
4478.681319	0.100104	0.175917	1235.153198
4478.682237	0.100327	0.175917	1327.253540
4478.683131	0.099525	0.175917	1416.229004
4478.684084	0.098884	0.175917	1510.465698
4478.684991	0.099946	0.175917	1601.116943
4479.651788	0.727544	0.181387	320.119324
4479.652744	0.397321	0.181387	699.957764
4479.653648	0.098214	0.181387	788.743347
4479.654552	0.099467	0.181387	878.661133
4479.655441	0.098829	0.181387	966.520386
4479.656381	0.098661	0.181387	1059.261597
4479.657283	0.099294	0.181387	1148.825195
4479.658178	0.099756	0.181387	1238.106689
4479.659119	0.099316	0.181387	1331.563477
4479.660027	0.098705	0.181387	1421.187500
4479.660930	0.099961	0.181387	1511.452271
4479.661825	0.099734	0.181387	1600.714111
4480.708593	0.720154	0.176884	339.192444
4480.709501	0.413551	0.176884	714.696777
4480.710441	0.099272	0.176884	808.012878
4480.711366	0.099899	0.176884	900.419189
4480.712284	0.099983	0.176884	992.203491
4480.713174	0.099825	0.176884	1081.048096
4480.714128	0.099781	0.176884	1176.239624
4480.715051	0.099785	0.176884	1268.341309
4480.715946	0.100144	0.176884	1357.970215
4480.716867	0.099943	0.176884	1450.017334
4480.717795	0.099320	0.176884	1542.186401
4480.718708	0.099987	0.176884	1633.474121
4481.687502	0.718381	0.178990	315.369415
4481.688397	0.400759	0.178990	674.048950
4481.689355	0.097939	0.178990	767.874939
4481.690258	0.099646	0.178990	857.855286
4481.691150	0.099943	0.178990	947.004089
4481.692057	0.099386	0.178990	1037.147217
4481.692994	0.098815	0.178990	1129.736572
4481.693897	0.100104	0.178990	1220.130249
4481.694791	0.099203	0.178990	1308.817627
4481.695733	0.099181	0.178990	1402.246094
4481.696639	0.098778	0.178990	1491.739014
4481.697541	0.100170	0.178990	1582.092041
4482.741721	0.717953	0.177399	320.207001
4482.742614	0.415986	0.177399	691.682800
4482.743581	0.099346	0.177399	787.750122
4482.744474	0.099510	0.177399	876.612976
4482.745365	0.100635	0.177399	966.278564
4482.746288	0.099946	0.177399	1058.529053
4482.747214	0.099349	0.177399	1150.526611
4482.748113	0.099943	0.177399	1240.375000
4482.749006	0.100463	0.177399	1330.088135
4482.749945	0.098694	0.177399	1422.761719
4482.750858	0.099558	0.177399	1513.658325
4482.751777	0.099554	0.177399	1605.148804
4483.723740	0.690198	0.179397	310.588959
4483.724640	0.396779	0.179397	667.689697
4483.725578	0.098265	0.179397	759.862610
4483.726482	0.099159	0.179397	849.502319
4483.727387	0.100389	0.179397	940.354736
4483.728278	0.099327	0.179397	1028.855469
4483.729229	0.098840	0.179397	1122.852661
4483.730131	0.099349	0.179397	1212.465820
4483.731030	0.100598	0.179397	1302.903564
4483.731956	0.098939	0.179397	1394.521240
4483.732862	0.098448	0.179397	1483.715576
4483.733772	0.100225	0.179397	1574.919922
4484.772864	0.730144	0.176263	359.230896
4484.773790	0.407311	0.176263	736.400696
4484.774709	0.099869	0.176263	828.180664
4484.775605	0.100269	0.176263	918.021301
4484.776565	0.099294	0.176263	1013.343994
4484.777472	0.099847	0.176263	1103.905640
4484.778363	0.100459	0.176263	1193.414551
4484.779272	0.099895	0.176263	1284.219116
4484.780209	0.099727	0.176263	1377.662964
4484.781102	0.099276	0.176263	1466.316528
4484.781994	0.100042	0.176263	1555.553589
4484.782930	0.098580	0.176263	1647.824707
4485.762520	0.675967	0.178632	302.157166
4485.763450	0.385496	0.178632	660.668091
4485.764341	0.100034	0.178632	749.798523
4485.765295	0.099287	0.178632	844.518433
4485.766192	0.098815	0.178632	933.155212
4485.767093	0.100441	0.178632	1023.652283
4485.767988	0.100459	0.178632	1113.563110
4485.768934	0.098624	0.178632	1206.861694
4485.769842	0.099111	0.178632	1296.854736
4485.770737	0.100291	0.178632	1386.614746
4485.771643	0.099031	0.178632	1476.336670
4485.772570	0.098529	0.178632	1567.673096
4486.803411	0.676498	0.175848	303.071014
4486.804314	0.418942	0.175848	681.375366
4486.805246	0.099371	0.175848	773.989441
4486.806136	0.100554	0.175848	863.482666
4486.807100	0.100111	0.175848	959.989746
4486.808016	0.100082	0.175848	1051.664673
4486.808902	0.100082	0.175848	1140.337158
4486.809850	0.099448	0.175848	1234.614136
4486.810741	0.100459	0.175848	1324.123047
4486.811658	0.099459	0.175848	1415.327148
4486.812556	0.099899	0.175848	1505.036133
4486.813491	0.099778	0.175848	1598.328369
4487.802334	0.672953	0.176344	304.174683
4487.803260	0.416990	0.176344	690.307190
4487.804154	0.099492	0.176344	779.253174
4487.805096	0.099163	0.176344	872.664307
4487.806004	0.098990	0.176344	962.547668
4487.806901	0.100005	0.176344	1052.252075
4487.807797	0.100580	0.176344	1142.371582
4487.808729	0.098906	0.176344	1234.552246
4487.809642	0.099302	0.176344	1325.214722
4487.810544	0.099536	0.176344	1414.996338
4487.811456	0.099452	0.176344	1505.696533
4487.812384	0.098925	0.176344	1597.498535
4488.831942	0.727720	0.181423	315.830353
4488.832901	0.360081	0.181423	661.147583
4488.833815	0.099287	0.181423	751.895996
4488.834707	0.099814	0.181423	840.930481
4488.835639	0.099580	0.181423	933.739136
4488.836566	0.099060	0.181423	1025.567871
4488.837464	0.100144	0.181423	1115.497192
4488.838357	0.099448	0.181423	1204.304443
4488.839285	0.098778	0.181423	1295.970459
4488.840196	0.099489	0.181423	1386.604492
4488.841119	0.099924	0.181423	1478.834595
4488.842018	0.099976	0.181423	1568.712646
4489.842131	0.691648	0.175405	305.016754
4489.843061	0.404213	0.175405	680.934509
4489.843959	0.099807	0.175405	770.561279
4489.844890	0.098928	0.175405	862.663452
4489.845794	0.098939	0.175405	952.104492
4489.846690	0.099965	0.175405	1041.672729
4489.847575	0.099800	0.175405	1129.995605
4489.848520	0.098752	0.175405	1223.316650
4489.849413	0.099104	0.175405	1311.816528
4489.850321	0.099305	0.175405	1401.985840
4489.851232	0.098844	0.175405	1492.032715
4489.852155	0.098401	0.175405	1582.856689
4490.862041	0.690864	0.180485	306.743744
4490.862971	0.383979	0.180485	663.844666
4490.863860	0.099141	0.180485	751.980652
4490.864798	0.099034	0.180485	844.874939
4490.865708	0.098925	0.180485	934.896301
4490.866608	0.099507	0.180485	1024.452393
4490.867499	0.099672	0.180485	1113.259766
4490.868452	0.098599	0.180485	1207.224243
4490.869360	0.099423	0.180485	1297.500000
4490.870260	0.099723	0.180485	1387.250610
4490.871180	0.098782	0.180485	1478.129761
4490.872094	0.098547	0.180485	1568.202026
4491.881487	0.554681	0.174926	281.223480
4491.882408	0.397621	0.174926	647.432251
4491.883308	0.099163	0.174926	736.678589
4491.884197	0.099082	0.174926	824.762512
4491.885144	0.098881	0.174926	918.402466
4491.886043	0.099243	0.174926	1007.622070
4491.886941	0.099727	0.174926	1097.176514
4491.887871	0.099203	0.174926	1189.435181
4491.888779	0.098723	0.174926	1279.075806
4491.889679	0.100250	0.174926	1369.301025
4491.890564	0.101085	0.174926	1458.761475
4491.891513	0.098881	0.174926	1552.599121
4492.892641	0.687459	0.182608	314.168549
4492.893543	0.390491	0.182608	666.391235
4492.894494	0.098602	0.182608	760.161987
4492.895405	0.098859	0.182608	850.222229
4492.896303	0.101151	0.182608	941.055908
4492.897195	0.099576	0.182608	1029.878052
4492.898125	0.098672	0.182608	1121.642944
4492.899035	0.098793	0.182608	1211.544312
4492.899938	0.099642	0.182608	1301.521362
4492.900825	0.099181	0.182608	1389.494873
4492.901774	0.098474	0.182608	1482.946777
4492.902684	0.099229	0.182608	1573.244751
4493.920712	0.706520	0.175780	310.868713
4493.921679	0.409314	0.175780	706.675293
4493.922591	0.099496	0.175780	797.415527
4493.923491	0.100836	0.175780	888.168091
4493.924418	0.099280	0.175780	980.200439
4493.925331	0.099141	0.175780	1070.715820
4493.926237	0.100126	0.175780	1161.429687
4493.927128	0.100243	0.175780	1250.746094
4493.928072	0.098767	0.175780	1343.982178
4493.928972	0.099397	0.175780	1433.439453
4493.929872	0.100349	0.175780	1523.753662
4493.930761	0.099170	0.175780	1611.915771
4494.924737	0.723798	0.179595	311.956787
4494.925691	0.368481	0.179595	663.488037
4494.926611	0.099166	0.179595	754.721008
4494.927529	0.100221	0.179595	846.723816
4494.928418	0.099639	0.179595	935.302612
4494.929373	0.099452	0.179595	1030.279175
4494.930289	0.099569	0.179595	1121.484497
4494.931182	0.100525	0.179595	1211.253174
4494.932124	0.098822	0.179595	1304.343506
4494.933028	0.099547	0.179595	1394.334106
4494.933939	0.099869	0.179595	1485.315063
4494.934833	0.099031	0.179595	1573.848511
4495.957509	0.718612	0.173121	357.150208
4495.958427	0.402433	0.173121	726.583557
4495.959322	0.099419	0.173121	815.563538
4495.960209	0.100411	0.173121	904.628418
4495.961160	0.099100	0.173121	998.872864
4495.962066	0.099316	0.173121	1088.853516
4495.962965	0.099701	0.173121	1178.484619
4495.963858	0.099628	0.173121	1267.452148
4495.964812	0.098617	0.173121	1361.532715
4495.965724	0.099598	0.173121	1452.366455
4495.966620	0.100129	0.173121	1542.082397
4495.967569	0.098756	0.173121	1635.802002
4496.958946	0.686763	0.179824	309.043213
4496.959851	0.392498	0.179824	664.253540
4496.960739	0.099877	0.179824	752.944092
4496.961710	0.099133	0.179824	849.202515
4496.962619	0.099529	0.179824	939.674194
4496.963535	0.099895	0.179824	1031.177979
4496.964430	0.099276	0.179824	1120.030151
4496.965368	0.099045	0.179824	1212.934692
4496.966275	0.099500	0.179824	1303.180786
4496.967165	0.099847	0.179824	1392.044922
4496.968075	0.098767	0.179824	1481.922974
4496.969015	0.100265	0.179824	1576.171997
4497.993163	0.718466	0.172940	313.250977
4497.994127	0.333149	0.172940	634.406982
4497.995034	0.098145	0.172940	723.424072
4497.995932	0.099258	0.172940	812.557617
4497.996816	0.099628	0.172940	900.628479
4497.997746	0.098672	0.172940	992.393311
4497.998655	0.098639	0.172940	1082.056030
4497.999552	0.099789	0.172940	1171.566650
4498.000472	0.098881	0.172940	1262.536865
4498.001388	0.098503	0.172940	1352.765991
4498.002296	0.099122	0.172940	1442.769043
4498.003186	0.099353	0.172940	1531.193237
4498.994121	0.728130	0.177351	319.649017
4498.995097	0.386136	0.177351	696.518188
4498.996009	0.099316	0.177351	787.094727
4498.996937	0.099822	0.177351	879.729309
4498.997824	0.099426	0.177351	967.920410
4498.998789	0.099397	0.177351	1063.838501
4498.999687	0.100192	0.177351	1153.810547
4499.000576	0.099910	0.177351	1242.630249
4499.001525	0.098818	0.177351	1336.408813
4499.002428	0.099269	0.177351	1426.048584
4499.003348	0.099668	0.177351	1517.743164
4499.004237	0.099554	0.177351	1606.247070
4500.028365	0.704919	0.173536	310.869446
4500.029272	0.415474	0.173536	687.704041
4500.030166	0.098456	0.173536	775.723511
4500.031124	0.098701	0.173536	870.279236
4500.032036	0.099752	0.173536	961.253235
4500.032938	0.100459	0.173536	1051.867187
4500.033886	0.098855	0.173536	1145.581665
4500.034785	0.098650	0.173536	1234.267944
4500.035683	0.099280	0.173536	1323.421143
4500.036568	0.099818	0.173536	1411.760132
4500.037504	0.098599	0.173536	1504.048462
4500.038410	0.098815	0.173536	1593.574585
4501.028833	0.710262	0.178245	321.038605
4501.029741	0.417473	0.178245	700.104248
4501.030628	0.099716	0.178245	788.551941
4501.031592	0.099027	0.178245	884.014038
4501.032503	0.099745	0.178245	974.881592
4501.033395	0.099906	0.178245	1063.997803
4501.034302	0.099719	0.178245	1154.443115
4501.035249	0.099525	0.178245	1248.693481
4501.036157	0.099855	0.178245	1339.361572
4501.037049	0.100690	0.178245	1429.176758
4501.037999	0.099247	0.178245	1523.461182
4501.038905	0.100386	0.178245	1614.410645
4502.062535	0.717953	0.174116	312.309509
4502.063495	0.380358	0.174116	677.452881
4502.064404	0.098148	0.174116	766.669556
4502.065302	0.099983	0.174116	856.454224
4502.066191	0.099906	0.174116	945.270630
4502.067131	0.098676	0.174116	1038.025635
4502.068030	0.098687	0.174116	1126.744873
4502.068931	0.100199	0.174116	1217.024170
4502.069830	0.099554	0.174116	1306.523560
4502.070789	0.098672	0.174116	1401.149902
4502.071696	0.099767	0.174116	1491.638428
4502.072591	0.099664	0.174116	1580.838013
4503.064017	0.700708	0.176416	311.114349
4503.064992	0.399752	0.176416	700.872742
4503.065895	0.099342	0.176416	790.578613
4503.066785	0.100287	0.176416	879.833923
4503.067718	0.099049	0.176416	972.246704
4503.068626	0.100258	0.176416	1063.280518
4503.069544	0.100349	0.176416	1155.401001
4503.070438	0.100170	0.176416	1244.952637
4503.071390	0.099814	0.176416	1339.975952
4503.072286	0.099979	0.176416	1429.557373
4503.073204	0.100166	0.176416	1521.509766
4503.074097	0.099576	0.176416	1610.431519
4504.096788	0.703865	0.172211	358.971039
4504.097712	0.399430	0.172211	728.044312
4504.098607	0.099298	0.172211	816.916138
4504.099493	0.100192	0.172211	905.685913
4504.100428	0.098712	0.172211	997.981812
4504.101335	0.099152	0.172211	1087.912354
4504.102235	0.099932	0.172211	1177.850830
4504.103158	0.099349	0.172211	1269.550293
4504.104081	0.098833	0.172211	1360.773193
4504.104988	0.099745	0.172211	1451.241821
4504.105880	0.100463	0.172211	1540.854492
4504.106827	0.099119	0.172211	1634.719849
4505.098711	0.676044	0.176287	304.895691
4505.099614	0.410259	0.176287	675.359375
4505.100553	0.098126	0.176287	767.499878
4505.101466	0.100005	0.176287	858.804321
4505.102368	0.100378	0.176287	949.345642
4505.103256	0.099836	0.176287	1038.000366
4505.104210	0.098796	0.176287	1132.252075
4505.105107	0.099617	0.176287	1221.608276
4505.105998	0.099562	0.176287	1310.317871
4505.106917	0.100060	0.176287	1402.272827
4505.107826	0.098947	0.176287	1492.215210
4505.108732	0.099943	0.176287	1582.763184
4506.131420	0.705392	0.169330	317.426331
4506.132315	0.404377	0.169330	679.344116
4506.133258	0.098145	0.169330	771.894409
4506.134156	0.098804	0.169330	860.620117
4506.135058	0.099910	0.169330	950.738647
4506.135952	0.099851	0.169330	1040.005493
4506.136901	0.098877	0.169330	1133.839722
4506.137807	0.099100	0.169330	1223.624634
4506.138706	0.100598	0.169330	1314.062378
4506.139615	0.099456	0.169330	1404.467529
4506.140541	0.098914	0.169330	1496.061523
4506.141450	0.099745	0.169330	1586.729614
4507.133438	0.718982	0.177024	353.739105
4507.134370	0.401060	0.177024	727.526611
4507.135276	0.100122	0.177024	818.237183
4507.136162	0.100701	0.177024	907.458008
4507.137099	0.098998	0.177024	1000.218933
4507.138012	0.099767	0.177024	1091.306030
4507.138913	0.099968	0.177024	1181.377441
4507.139801	0.100170	0.177024	1270.328125
4507.140752	0.098939	0.177024	1364.419312
4507.141656	0.099972	0.177024	1454.793945
4507.142546	0.099836	0.177024	1543.648315
4507.143475	0.099148	0.177024	1635.756714
4508.166625	0.664424	0.171155	298.990723
4508.167540	0.403319	0.171155	668.027710
4508.168445	0.099210	0.171155	757.812927
4508.169336	0.099141	0.171155	846.147217
4508.170275	0.099034	0.171155	939.140564
4508.171180	0.099712	0.171155	1029.379883
4508.172073	0.099836	0.171155	1118.533813
4508.173020	0.099338	0.171155	1212.607300
4508.173914	0.098756	0.171155	1300.895264
4508.174814	0.100389	0.171155	1391.245728
4508.175707	0.099683	0.171155	1480.262329
4508.176639	0.098536	0.171155	1572.098267
4509.167569	0.705894	0.175176	313.416718
4509.168469	0.397921	0.175176	671.545776
4509.169399	0.098910	0.175176	763.531982
4509.170309	0.098895	0.175176	853.526672
4509.171218	0.099814	0.175176	944.257996
4509.172110	0.100265	0.175176	1033.694336
4509.173043	0.098833	0.175176	1125.905518
4509.173949	0.098833	0.175176	1215.448242
4509.174847	0.099452	0.175176	1304.756104
4509.175743	0.099800	0.175176	1394.176758
4509.176698	0.098401	0.175176	1488.149658
4509.177602	0.098979	0.175176	1577.627075
4510.202319	0.728815	0.170833	320.678467
4510.203258	0.402905	0.170833	699.006470
4510.204177	0.098906	0.170833	789.901306
4510.205076	0.100071	0.170833	879.864929
4510.206005	0.099899	0.170833	972.670776
4510.206912	0.099086	0.170833	1062.541504
4510.207821	0.100400	0.170833	1153.805420
4510.208714	0.099935	0.170833	1243.047607
4510.209658	0.098712	0.170833	1336.231934
4510.210563	0.098778	0.170833	1425.626099
4510.211458	0.100847	0.170833	1515.884277
4510.212349	0.099525	0.170833	1604.561157
4511.202832	0.600828	0.175852	304.619598
4511.203757	0.412991	0.175852	686.635986
4511.204655	0.099734	0.175852	776.197021
4511.205543	0.100247	0.175852	865.216003
4511.206485	0.099020	0.175852	958.492615
4511.207392	0.099642	0.175852	1048.868164
4511.208298	0.099763	0.175852	1139.253662
4511.209235	0.099254	0.175852	1232.254761
4511.210144	0.098654	0.175852	1321.930908
4511.211051	0.100016	0.175852	1412.645264
4511.211945	0.101111	0.175852	1503.038330
4511.212886	0.098701	0.175852	1595.916138
4512.236492	0.700463	0.170213	308.203552
4512.237480	0.355811	0.170213	659.744385
4512.238378	0.099412	0.170213	749.015991
4512.239270	0.099939	0.170213	838.161560
4512.240221	0.099075	0.170213	932.381592
4512.241127	0.099423	0.170213	1022.458496
4512.242037	0.099767	0.170213	1113.246338
4512.242935	0.099500	0.170213	1202.596924
4512.243877	0.099236	0.170213	1296.077148
4512.244781	0.099243	0.170213	1385.792969
4512.245670	0.098928	0.170213	1473.740112
4512.246585	0.098789	0.170213	1564.132080
4513.237465	0.678311	0.175526	307.953003
4513.238362	0.398639	0.175526	665.532104
4513.239312	0.098199	0.175526	758.821594
4513.240209	0.098921	0.175526	847.553650
4513.241112	0.100433	0.175526	938.244995
4513.242001	0.099360	0.175526	1026.576294
4513.242958	0.098752	0.175526	1121.082397
4513.243869	0.099221	0.175526	1211.472900
4513.244769	0.099016	0.175526	1300.587402
4513.245696	0.098928	0.175526	1392.293823
4513.246593	0.098507	0.175526	1480.654663
4513.247501	0.099437	0.175526	1570.943726
4514.270195	0.600322	0.170865	285.153076
4514.271119	0.381266	0.170865	637.442749
4514.272048	0.099261	0.170865	729.656677
4514.272938	0.099353	0.170865	818.080872
4514.273903	0.099269	0.170865	913.875244
4514.274795	0.099547	0.170865	1002.671265
4514.275681	0.100126	0.170865	1091.382690
4514.276613	0.098811	0.170865	1183.474609
4514.277511	0.099272	0.170865	1272.621338
4514.278426	0.099730	0.170865	1363.874512
4514.279324	0.099122	0.170865	1452.886353
4514.280270	0.098914	0.170865	1546.458618
4515.273177	0.681643	0.174434	303.331177
4515.274079	0.388180	0.174434	653.469482
4515.274966	0.098639	0.174434	740.962219
4515.275928	0.098723	0.174434	835.933899
4515.276821	0.099104	0.174434	924.433777
4515.277725	0.099448	0.174434	1014.334961
4515.278612	0.099207	0.174434	1102.331177
4515.279567	0.098694	0.174434	1196.583740
4515.280471	0.098500	0.174434	1285.627563
4515.281372	0.099199	0.174434	1375.006104
4515.282314	0.098459	0.174434	1467.754883
4515.283219	0.098427	0.174434	1556.830933
4516.302840	0.594591	0.170277	281.241577
4516.303769	0.393889	0.170277	647.164612
4516.304669	0.099236	0.170277	736.476868
4516.305555	0.099712	0.170277	824.821594
4516.306510	0.098958	0.170277	919.326050
4516.307409	0.100177	0.170277	1009.385193
4516.308299	0.099880	0.170277	1098.278687
4516.309236	0.099456	0.170277	1191.468506
4516.310144	0.099185	0.170277	1281.528076
4516.311045	0.099756	0.170277	1371.408081
4516.311934	0.099166	0.170277	1459.566895
4516.312877	0.098470	0.170277	1552.424561
4517.310932	0.704125	0.171083	307.702515
4517.311871	0.396541	0.171083	680.054077
4517.312784	0.098093	0.171083	769.613220
4517.313695	0.099210	0.171083	859.993713
4517.314585	0.099957	0.171083	948.955688
4517.315514	0.098796	0.171083	1040.737549
4517.316423	0.098895	0.171083	1130.633301
4517.317327	0.099690	0.171083	1220.753052
4517.318213	0.100111	0.171083	1309.451416
4517.319170	0.098705	0.171083	1403.911987
4517.320072	0.099199	0.171083	1493.389648
4517.320974	0.100565	0.171083	1584.099487
4518.332380	0.672341	0.165918	301.208893
4518.333307	0.398086	0.165918	670.234497
4518.334203	0.099386	0.165918	759.284363
4518.335129	0.099756	0.165918	851.658264
4518.336044	0.098972	0.165918	942.217773
4518.336957	0.099877	0.165918	1033.405273
4518.337847	0.100221	0.165918	1122.601929
4518.338782	0.099027	0.165918	1215.192261
4518.339685	0.098987	0.165918	1304.577393
4518.340584	0.100203	0.165918	1394.659546
4518.341474	0.099529	0.165918	1483.240234
4518.342430	0.098555	0.165918	1577.458496
4519.350241	0.678380	0.169351	313.411621
4519.351139	0.416082	0.169351	687.052856
4519.352086	0.098386	0.169351	780.224609
4519.352998	0.099565	0.169351	871.028259
4519.353899	0.100558	0.169351	961.630859
4519.354787	0.099884	0.169351	1050.327881
4519.355734	0.098877	0.169351	1143.964355
4519.356641	0.100049	0.169351	1234.708618
4519.357542	0.100009	0.169351	1324.816284
4519.358478	0.098851	0.169351	1417.341064
4519.359383	0.098577	0.169351	1506.552979
4519.360281	0.099554	0.169351	1595.952881
4520.362966	0.686675	0.173037	306.943665
4520.363875	0.420212	0.173037	688.916748
4520.364764	0.099983	0.173037	777.801575
4520.365723	0.098811	0.173037	872.561340
4520.366642	0.099397	0.173037	963.907166
4520.367537	0.100074	0.173037	1053.473755
4520.368425	0.100217	0.173037	1142.466675
4520.369362	0.098782	0.173037	1235.025146
4520.370268	0.100261	0.173037	1325.861816
4520.371158	0.100203	0.173037	1415.042114
4520.372099	0.099082	0.173037	1508.278320
4520.373005	0.099071	0.173037	1598.036743
4521.390531	0.732806	0.171478	317.305176
4521.391473	0.421121	0.171478	714.000793
4521.392400	0.098199	0.171478	805.031677
4521.393309	0.099492	0.171478	895.470093
4521.394210	0.100708	0.171478	986.208008
4521.395148	0.099100	0.171478	1079.164185
4521.396052	0.098723	0.171478	1168.409912
4521.396956	0.100342	0.171478	1259.118896
4521.397843	0.100734	0.171478	1348.469604
4521.398778	0.098767	0.171478	1440.816895
4521.399683	0.099181	0.171478	1530.575562
4521.400586	0.099749	0.171478	1620.648437
4522.392578	0.595426	0.174221	294.735870
4522.393502	0.379669	0.174221	645.550171
4522.394425	0.099207	0.174221	737.117798
4522.395314	0.100042	0.174221	826.054687
4522.396261	0.099236	0.174221	920.031006
4522.397156	0.099521	0.174221	1009.102722
4522.398047	0.099258	0.174221	1097.541382
4522.398978	0.099294	0.174221	1189.984497
4522.399894	0.099474	0.174221	1281.102539
4522.400804	0.099840	0.174221	1371.957031
4522.401696	0.099847	0.174221	1461.020874
4522.402631	0.098884	0.174221	1553.477661
4523.430346	0.731444	0.168597	317.446716
4523.431291	0.379384	0.168597	675.964111
4523.432204	0.098225	0.168597	765.643616
4523.433120	0.099496	0.168597	856.781799
4523.434018	0.100291	0.168597	946.842712
4523.434957	0.098906	0.168597	1039.715698
4523.435858	0.098892	0.168597	1128.817017
4523.436753	0.099935	0.168597	1218.259155
4523.437640	0.099609	0.168597	1306.612671
4523.438589	0.098687	0.168597	1400.266235
4523.439488	0.099115	0.168597	1489.370605
4523.440390	0.099536	0.168597	1579.152222
4524.422618	0.692190	0.167763	307.332336
4524.423532	0.404634	0.167763	677.167603
4524.424421	0.099716	0.167763	765.814758
4524.425347	0.099679	0.167763	858.117493
4524.426284	0.099829	0.167763	951.657349
4524.427181	0.099738	0.167763	1041.121948
4524.428067	0.099847	0.167763	1129.586792
4524.429024	0.099005	0.167763	1224.334717
4524.429930	0.099943	0.167763	1314.882690
4524.430856	0.100210	0.167763	1407.677124
4524.431742	0.099386	0.167763	1495.733154
4524.432679	0.099382	0.167763	1588.854370
4525.469650	0.700507	0.169423	313.826935
4525.470545	0.427610	0.169423	696.537720
4525.471515	0.098309	0.169423	791.897766
4525.472415	0.099448	0.169423	881.401184
4525.473315	0.100349	0.169423	971.715393
4525.474199	0.099562	0.169423	1059.728027
4525.475141	0.098613	0.169423	1152.621704
4525.476047	0.099456	0.169423	1242.728394
4525.476947	0.099913	0.169423	1332.650391
4525.477884	0.098840	0.169423	1425.263794
4525.478788	0.098492	0.169423	1514.300903
4525.479686	0.099463	0.169423	1603.618530
4526.453706	0.719799	0.168662	314.551971
4526.454603	0.417620	0.168662	689.156738
4526.455563	0.098434	0.168662	783.653198
4526.456462	0.100514	0.168662	874.015198
4526.457350	0.100225	0.168662	963.014648
4526.458290	0.099155	0.168662	1056.220581
4526.459199	0.098881	0.168662	1146.103027
4526.460106	0.099968	0.168662	1236.774292
4526.460995	0.100228	0.168662	1325.877197
4526.461933	0.098661	0.168662	1418.421143
4526.462845	0.100565	0.168662	1510.136597
4526.463745	0.099697	0.168662	1599.864136
4527.506891	0.717938	0.166801	316.610779
4527.507871	0.366526	0.166801	675.806152
4527.508775	0.098203	0.166801	764.581787
4527.509674	0.100276	0.166801	854.729797
4527.510563	0.099891	0.166801	943.533203
4527.511501	0.098716	0.166801	1036.128662
4527.512410	0.099324	0.166801	1126.413940
4527.513304	0.100682	0.166801	1216.423950
4527.514234	0.099357	0.166801	1308.825684
4527.515148	0.098514	0.166801	1398.867798
4527.516058	0.100316	0.166801	1490.155518
4527.516949	0.099858	0.166801	1579.129395
4528.486853	0.723212	0.172199	314.597076
4528.487839	0.362095	0.172199	671.622437
4528.488737	0.098123	0.172199	759.736511
4528.489628	0.100239	0.172199	849.049683
4528.490521	0.099034	0.172199	937.487427
4528.491474	0.098741	0.172199	1031.588013
4528.492383	0.099170	0.172199	1121.733521
4528.493283	0.100232	0.172199	1211.942261
4528.494213	0.098793	0.172199	1303.819458
4528.495112	0.098577	0.172199	1392.439819
4528.496013	0.099126	0.172199	1481.752319
4528.496902	0.099847	0.172199	1570.516724
4529.543633	0.703986	0.166603	313.977570
4529.544617	0.396021	0.166603	703.661743
4529.545528	0.099038	0.166603	793.885437
4529.546421	0.099998	0.166603	883.183228
4529.547359	0.099723	0.166603	976.723328
4529.548255	0.098994	0.166603	1065.422119
4529.549168	0.099858	0.166603	1156.592773
4529.550065	0.100078	0.166603	1246.362793
4529.550995	0.098804	0.166603	1338.250244
4529.551899	0.099247	0.166603	1427.969360
4529.552801	0.101038	0.166603	1519.105225
4529.553688	0.099346	0.166603	1607.224854
4530.520571	0.734963	0.170422	356.457214
4530.521507	0.377589	0.170422	709.880615
4530.522416	0.098628	0.170422	799.533386
4530.523311	0.099569	0.170422	888.647705
4530.524245	0.098976	0.170422	981.091125
4530.525146	0.099155	0.170422	1070.430054
4530.526048	0.100664	0.170422	1161.229004
4530.526939	0.100177	0.170422	1250.486694
4530.527890	0.098676	0.170422	1344.327148
4530.528793	0.099141	0.170422	1433.851074
4530.529690	0.100129	0.170422	1523.667114
4530.530613	0.099031	0.170422	1615.072510
4531.579336	0.705396	0.166640	308.963226
4531.580228	0.425369	0.166640	688.392090
4531.581199	0.098357	0.166640	783.896667
4531.582108	0.099928	0.166640	874.731201
4531.583010	0.099803	0.166640	964.753906
4531.583937	0.099185	0.166640	1056.697998
4531.584836	0.098928	0.166640	1145.634521
4531.585740	0.100133	0.166640	1236.154785
4531.586630	0.100818	0.166640	1325.882690
4531.587559	0.098687	0.166640	1417.562500
4531.588466	0.098650	0.166640	1507.037964
4531.589373	0.099694	0.166640	1597.460083
4532.554712	0.686320	0.170104	304.725891
4532.555620	0.418510	0.170104	684.732544
4532.556509	0.099686	0.170104	773.353638
4532.557426	0.099327	0.170104	864.436890
4532.558356	0.099020	0.170104	956.525269
4532.559259	0.099807	0.170104	1046.651123
4532.560149	0.100679	0.170104	1136.255127
4532.561095	0.098954	0.170104	1229.865479
4532.562003	0.099064	0.170104	1319.815308
4532.562899	0.099939	0.170104	1409.360596
4532.563786	0.099525	0.170104	1497.639404
4532.564716	0.098785	0.170104	1589.509766
4533.614077	0.576339	0.166080	276.066406
4533.615008	0.405912	0.166080	653.970337
4533.615916	0.099792	0.166080	744.581909
4533.616806	0.100415	0.166080	833.951294
4533.617747	0.099086	0.166080	927.190918
4533.618657	0.099474	0.166080	1017.712158
4533.619548	0.100078	0.166080	1106.881714
4533.620486	0.099207	0.166080	1199.937500
4533.621387	0.098698	0.166080	1288.864014
4533.622286	0.100126	0.166080	1378.877075
4533.623178	0.099694	0.166080	1467.803711
4533.624120	0.098467	0.166080	1560.559448
4534.588888	0.691135	0.169894	306.864044
4534.589785	0.396339	0.169894	662.380249
4534.590749	0.098188	0.169894	757.033936
4534.591649	0.099316	0.169894	846.418701
4534.592542	0.100393	0.169894	936.069702
4534.593461	0.100082	0.169894	1028.044922
4534.594377	0.098895	0.169894	1118.632935
4534.595284	0.099906	0.169894	1209.247681
4534.596177	0.100148	0.169894	1298.679565
4534.597108	0.098932	0.169894	1390.785156
4534.598015	0.098866	0.169894	1480.456543
4534.598917	0.099987	0.169894	1570.644409
4535.649741	0.728079	0.165246	319.626495
4535.650708	0.409047	0.165246	715.174561
4535.651616	0.098540	0.165246	804.648926
4535.652516	0.100364	0.165246	894.976318
4535.653442	0.099053	0.165246	986.699158
4535.654341	0.098888	0.165246	1075.599365
4535.655247	0.099822	0.165246	1166.037842
4535.656138	0.100364	0.165246	1255.461914
4535.657071	0.098833	0.165246	1347.673096
4535.657981	0.098837	0.165246	1437.614502
4535.658885	0.100701	0.165246	1528.647949
4535.659775	0.099972	0.165246	1617.622925
4536.624096	0.686730	0.168198	309.715118
4536.625018	0.408688	0.168198	686.525208
4536.625919	0.100093	0.168198	776.708801
4536.626857	0.099016	0.168198	869.585937
4536.627763	0.099082	0.168198	959.354248
4536.628661	0.100507	0.168198	1049.609131
4536.629551	0.099558	0.168198	1138.215820
4536.630502	0.099071	0.168198	1232.432373
4536.631404	0.099331	0.168198	1322.028931
4536.632304	0.099957	0.168198	1411.990479
4536.633213	0.099536	0.168198	1502.468872
4536.634139	0.098752	0.168198	1593.913574
4537.683933	0.678446	0.162639	303.943817
4537.684869	0.375802	0.162639	655.694458
4537.685763	0.099229	0.162639	744.404724
4537.686718	0.098987	0.162639	838.937134
4537.687616	0.098767	0.162639	927.630005
4537.688516	0.100118	0.162639	1017.736572
4537.689404	0.100052	0.162639	1106.583130
4537.690346	0.098723	0.162639	1199.580322
4537.691246	0.099203	0.162639	1288.862915
4537.692153	0.099825	0.162639	1379.404541
4537.693039	0.099716	0.162639	1467.752563
4537.693990	0.098639	0.162639	1561.558228
4538.658759	0.718773	0.170197	311.947571
4538.659665	0.425057	0.170197	697.049561
4538.660594	0.098298	0.170197	788.368713
4538.661507	0.099712	0.170197	879.405701
4538.662407	0.100199	0.170197	969.584778
4538.663342	0.099397	0.170197	1062.520996
4538.664250	0.099045	0.170197	1152.454224
4538.665151	0.100829	0.170197	1243.301025
4538.666040	0.100367	0.170197	1332.527710
4538.666981	0.098848	0.170197	1425.543335
4538.667885	0.098917	0.170197	1514.964478
4538.668782	0.100258	0.170197	1604.895508
4539.718625	0.650889	0.167224	296.154358
4539.719562	0.407032	0.167224	677.543823
4539.720448	0.099401	0.167224	765.612793
4539.721411	0.099602	0.167224	861.529541
4539.722313	0.100825	0.167224	952.473877
4539.723225	0.100159	0.167224	1043.818604
4539.724129	0.099771	0.167224	1134.011108
4539.725086	0.100115	0.167224	1229.820923
4539.726009	0.099573	0.167224	1321.726562
4539.726906	0.100177	0.167224	1411.585327
4539.727851	0.099229	0.167224	1505.356323
4539.728752	0.099705	0.167224	1595.190186
4540.694487	0.690857	0.167856	309.503906
4540.695389	0.412379	0.167856	681.469910
4540.696337	0.098987	0.167856	775.309387
4540.697235	0.098925	0.167856	864.143677
4540.698132	0.100400	0.167856	954.202820
4540.699025	0.100748	0.167856	1044.171021
4540.699964	0.098837	0.167856	1136.978638
4540.700878	0.099291	0.167856	1227.730469
4540.701780	0.099877	0.167856	1317.819214
4540.702664	0.099697	0.167856	1405.951538
4540.703612	0.098595	0.167856	1499.419556
4540.704520	0.099232	0.167856	1589.522339
4541.752775	0.713496	0.166897	310.370789
4541.753744	0.333351	0.166897	633.387695
4541.754653	0.099060	0.166897	723.433289
4541.755575	0.099474	0.166897	815.148193
4541.756470	0.099708	0.166897	904.387085
4541.757424	0.098958	0.166897	998.792542
4541.758331	0.099346	0.166897	1088.899048
4541.759249	0.100474	0.166897	1181.133789
4541.760138	0.099675	0.166897	1269.745117
4541.761086	0.099642	0.166897	1364.206055
4541.761985	0.099532	0.166897	1453.685791
4541.762869	0.100170	0.166897	1542.235840
4542.731226	0.679274	0.166108	307.710968
4542.732134	0.411621	0.166108	681.462891
4542.733088	0.098313	0.166108	775.253479
4542.733987	0.099357	0.166108	864.575134
4542.734881	0.100481	0.166108	954.405090
4542.735769	0.099873	0.166108	1043.092407
4542.736724	0.098708	0.166108	1137.359009
4542.737633	0.099884	0.166108	1228.153564
4542.738536	0.100122	0.166108	1318.563843
4542.739465	0.098917	0.166108	1410.458008
4542.740367	0.098584	0.166108	1499.380737
4542.741264	0.100800	0.166108	1589.797974
4543.785941	0.706110	0.163622	312.806580
4543.786840	0.411207	0.163622	682.481934
4543.787802	0.099569	0.163622	778.267395
4543.788723	0.100287	0.163622	870.631592
4543.789617	0.100737	0.163622	960.690735
4543.790539	0.099229	0.163622	1052.179443
4543.791469	0.099628	0.163622	1144.833252
4543.792390	0.100020	0.163622	1236.951294
4543.793297	0.100616	0.163622	1328.210449
4543.794241	0.099957	0.163622	1422.570068
4543.795148	0.100203	0.163622	1513.453857
4543.796066	0.099686	0.163622	1604.965820
4544.767956	0.700584	0.169665	313.861420
4544.768851	0.378204	0.169665	652.354309
4544.769819	0.098031	0.169665	747.248291
4544.770730	0.099016	0.169665	837.451965
4544.771620	0.099829	0.169665	926.299866
4544.772556	0.099093	0.169665	1019.050903
4544.773463	0.098522	0.169665	1108.410156
4544.774358	0.099218	0.169665	1197.209839
4544.775248	0.099675	0.169665	1285.920898
4544.776184	0.098566	0.169665	1378.178345
4544.777086	0.098785	0.169665	1467.282715
4544.777996	0.100426	0.169665	1558.670410
4545.817050	0.672700	0.165399	300.024261
4545.817963	0.399683	0.165399	664.934448
4545.818859	0.099265	0.165399	753.875977
4545.819791	0.098818	0.165399	845.974670
4545.820703	0.099653	0.165399	936.858521
4545.821606	0.099470	0.165399	1026.680176
4545.822495	0.099075	0.165399	1114.757568
4545.823451	0.098577	0.165399	1208.996826
4545.824352	0.099679	0.165399	1298.807617
4545.825245	0.099891	0.165399	1388.010620
4545.826171	0.100045	0.165399	1480.652466
4545.827087	0.099760	0.165399	1572.032227
4546.805193	0.727881	0.166378	319.539703
4546.806155	0.405981	0.166378	710.093872
4546.807066	0.099082	0.166378	800.357605
4546.807968	0.100331	0.166378	890.856018
4546.808874	0.099998	0.166378	981.453796
4546.809807	0.098987	0.166378	1073.808472
4546.810710	0.099324	0.166378	1163.497803
4546.811603	0.100170	0.166378	1252.949341
4546.812543	0.098906	0.166378	1345.921265
4546.813442	0.098767	0.166378	1434.712891
4546.814336	0.100096	0.166378	1524.199097
4546.815225	0.099617	0.166378	1612.758301
4547.848146	0.714137	0.164041	314.934387
4547.849101	0.352247	0.164041	651.330566
4547.850006	0.098284	0.164041	740.277283
4547.850899	0.100199	0.164041	829.754944
4547.851786	0.100221	0.164041	918.650940
4547.852721	0.098778	0.164041	1011.008423
4547.853635	0.099309	0.164041	1101.776978
4547.854532	0.099844	0.164041	1191.336792
4547.855438	0.099115	0.164041	1281.135010
4547.856364	0.098639	0.164041	1372.474609
4547.857270	0.099159	0.164041	1462.312622
4547.858167	0.100657	0.164041	1552.601685
4548.844509	0.719582	0.165491	320.214203
4548.845415	0.426376	0.165491	706.510620
4548.846347	0.098818	0.165491	798.609314
4548.847266	0.099609	0.165491	890.150330
4548.848164	0.100569	0.165491	980.461182
4548.849052	0.100657	0.165491	1069.844360
4548.849955	0.100715	0.165491	1160.790283
4548.850891	0.100199	0.165491	1254.576538
4548.851813	0.100759	0.165491	1347.476562
4548.852711	0.099617	0.165491	1436.932373
4548.853671	0.099646	0.165491	1532.592529
4548.854574	0.099521	0.165491	1622.460449
4549.878786	0.720183	0.168493	353.609894
4549.879708	0.402755	0.168493	724.950073
4549.880614	0.099822	0.168493	815.388611
4549.881504	0.100283	0.168493	904.640686
4549.882453	0.098928	0.168493	998.523560
4549.883354	0.099170	0.168493	1087.875610
4549.884251	0.101008	0.168493	1178.480103
4549.885142	0.099390	0.168493	1267.036255
4549.886101	0.098632	0.168493	1361.623901
4549.887011	0.100038	0.168493	1452.658325
4549.887911	0.100166	0.168493	1542.807739
4549.888848	0.098851	0.168493	1635.431396
4550.884811	0.728016	0.166523	317.415100
4550.885761	0.334636	0.166523	635.319458
4550.886666	0.098577	0.166523	724.531311
4550.887564	0.099796	0.166523	814.148254
4550.888451	0.099950	0.166523	902.803833
4550.889395	0.098837	0.166523	996.105652
4550.890311	0.099781	0.166523	1087.505493
4550.891209	0.100602	0.166523	1177.845947
4550.892099	0.099877	0.166523	1266.736206
4550.893044	0.098936	0.166523	1360.230347
4550.893948	0.099712	0.166523	1450.369873
4550.894837	0.100151	0.166523	1539.404419
4551.909346	0.672568	0.166007	300.638062
4551.910284	0.414558	0.166007	689.493530
4551.911172	0.099935	0.166007	778.236084
4551.912115	0.098990	0.166007	871.584106
4551.913017	0.099225	0.166007	961.084961
4551.913914	0.099734	0.166007	1050.546265
4551.914806	0.100067	0.166007	1139.806152
4551.915752	0.098745	0.166007	1233.218994
4551.916667	0.099357	0.166007	1324.130371
4551.917560	0.099976	0.166007	1413.408569
4551.918495	0.098862	0.166007	1505.844849
4551.919393	0.098514	0.166007	1594.310791
4552.924101	0.723604	0.162829	314.043945
4552.925047	0.387371	0.162829	680.496582
4552.925963	0.098379	0.162829	770.611694
4552.926875	0.100433	0.162829	862.206909
4552.927772	0.100291	0.162829	952.167480
4552.928710	0.098895	0.162829	1044.931274
4552.929609	0.099093	0.162829	1134.015869
4552.930508	0.100144	0.162829	1224.045410
4552.931396	0.099617	0.162829	1312.505005
4552.932336	0.098577	0.162829	1405.167114
4552.933231	0.099489	0.162829	1494.209351
4552.934128	0.100199	0.162829	1584.087891
4553.940435	0.690981	0.168013	306.795776
4553.941338	0.422454	0.168013	688.271362
4553.942222	0.099646	0.168013	776.358398
4553.943197	0.100166	0.168013	874.020264
4553.944104	0.099814	0.168013	964.552002
4553.944994	0.100496	0.168013	1053.993042
4553.945924	0.098873	0.168013	1145.945190
4553.946834	0.099602	0.168013	1236.583008
4553.947752	0.099584	0.168013	1328.000854
4553.948640	0.099836	0.168013	1416.655640
4553.949577	0.098994	0.168013	1509.413086
4553.950490	0.099939	0.168013	1600.657349
4554.962902	0.700811	0.161822	312.561493
4554.963809	0.414023	0.161822	688.080750
4554.964732	0.098760	0.161822	779.236023
4554.965667	0.098767	0.161822	871.583252
4554.966575	0.099335	0.161822	961.779175
4554.967475	0.100858	0.161822	1052.551514
4554.968413	0.099031	0.161822	1145.442383
4554.969310	0.098771	0.161822	1234.039795
4554.970214	0.100338	0.161822	1324.745483
4554.971102	0.100616	0.161822	1414.092896
4554.972047	0.098562	0.161822	1507.234009
4554.972944	0.099390	0.161822	1596.386475
4555.971529	0.705751	0.168585	309.118835
4555.972526	0.400122	0.168585	708.040527
4555.973424	0.099664	0.168585	797.539062
4555.974313	0.100364	0.168585	886.762451
4555.975251	0.100023	0.168585	980.584229
4555.976155	0.099763	0.168585	1070.770142
4555.977060	0.101071	0.168585	1162.239014
4555.977951	0.100151	0.168585	1251.473877
4555.978882	0.098881	0.168585	1343.531738
4555.979794	0.099485	0.168585	1434.261963
4555.980703	0.101711	0.168585	1526.717651
4555.981590	0.099419	0.168585	1614.902222
4557.000648	0.727709	0.162523	318.008698
4557.001625	0.375491	0.162523	684.863159
4557.002516	0.098536	0.162523	772.659058
4557.003419	0.099785	0.162523	862.765076
4557.004309	0.099701	0.162523	951.498901
4557.005257	0.098866	0.162523	1045.223877
4557.006163	0.099100	0.162523	1135.008789
4557.007060	0.100770	0.162523	1225.399658
4557.007989	0.099232	0.162523	1317.586304
4557.008894	0.098818	0.162523	1407.016968
4557.009802	0.100265	0.162523	1498.057495
4557.010694	0.100049	0.162523	1587.301025
4558.004169	0.718964	0.167973	314.906067
4558.005140	0.312319	0.167973	618.168152
4558.006049	0.099104	0.167973	708.253723
4558.006944	0.100074	0.167973	797.820374
4558.007830	0.100111	0.167973	886.518799
4558.008762	0.099031	0.167973	978.815491
4558.009676	0.099690	0.167973	1069.932129
4558.010579	0.100162	0.167973	1160.378784
4558.011472	0.099631	0.167973	1249.349609
4558.012412	0.098804	0.167973	1342.225098
4558.013316	0.099928	0.167973	1432.559937
4558.014205	0.100254	0.167973	1521.685669
4559.036866	0.718037	0.162946	311.628113
4559.037825	0.348442	0.162946	645.784363
4559.038732	0.098280	0.162946	734.924316
4559.039638	0.100063	0.162946	825.581848
4559.040526	0.100137	0.162946	914.503235
4559.041482	0.099045	0.162946	1009.190674
4559.042390	0.099214	0.162946	1099.276855
4559.043289	0.099987	0.162946	1189.164795
4559.044179	0.099210	0.162946	1277.461914
4559.045130	0.098932	0.162946	1371.546143
4559.046038	0.099225	0.162946	1461.642334
4559.046934	0.100243	0.162946	1551.459961
4560.038365	0.690601	0.165709	305.936066
4560.039299	0.398555	0.165709	678.186157
4560.040193	0.099664	0.165709	767.286011
4560.041128	0.099221	0.165709	860.057800
4560.042033	0.099042	0.165709	949.690552
4560.042931	0.100364	0.165709	1039.817261
4560.043819	0.100507	0.165709	1129.067139
4560.044766	0.098961	0.165709	1222.783325
4560.045664	0.099364	0.165709	1312.012207
4560.046567	0.100056	0.165709	1402.362915
4560.047453	0.099734	0.165709	1490.727173
4560.048401	0.098687	0.165709	1584.281982
4561.072081	0.695500	0.162148	306.715729
4561.072993	0.410094	0.162148	680.721436
4561.073879	0.099148	0.162148	768.566528
4561.074813	0.098892	0.162148	860.931274
4561.075724	0.099565	0.162148	951.635376
4561.076624	0.100269	0.162148	1041.877075
4561.077552	0.099807	0.162148	1134.498047
4561.078468	0.098851	0.162148	1225.045898
4561.079375	0.101008	0.162148	1316.660400
4561.080272	0.100444	0.162148	1406.759033
4561.081210	0.098925	0.162148	1499.550293
4561.082115	0.098774	0.162148	1588.941162
