time (s)	coil I (A)	last det (V)	int current (uC)
8696.478181	0.673176	0.199889	306.968384
8696.479123	0.461671	0.199889	741.862610
8696.480011	0.100909	0.199889	831.470215
8696.480952	0.099379	0.199889	924.985535
8696.481852	0.099719	0.199889	1014.732849
8696.482756	0.101986	0.199889	1106.928223
8696.483644	0.100840	0.199889	1196.473999
8696.484592	0.098910	0.199889	1290.240601
8696.485498	0.100173	0.199889	1380.997681
8696.486393	0.100715	0.199889	1471.137939
8696.487320	0.099243	0.199889	1563.136353
8696.488224	0.098584	0.199889	1652.256226
8697.503181	0.714056	0.160887	312.756683
8697.504078	0.477777	0.160887	741.322754
8697.505048	0.098763	0.160887	837.123291
8697.505955	0.101576	0.160887	929.252686
8697.506850	0.101008	0.160887	1019.655151
8697.507786	0.099983	0.160887	1113.239136
8697.508690	0.100027	0.160887	1203.663452
8697.509590	0.101521	0.160887	1295.032349
8697.510480	0.101162	0.160887	1385.066650
8697.511417	0.099133	0.160887	1477.954590
8697.512325	0.100620	0.160887	1569.317627
8697.513218	0.102220	0.160887	1660.600464
8698.527225	0.720626	0.177729	350.224365
8698.528154	0.468347	0.177729	785.318909
8698.529055	0.101389	0.177729	876.670532
8698.529944	0.101605	0.177729	966.997559
8698.530877	0.099368	0.177729	1059.707642
8698.531778	0.100089	0.177729	1149.887939
8698.532681	0.102469	0.177729	1242.417847
8698.533570	0.100529	0.177729	1331.787720
8698.534523	0.098965	0.177729	1426.101196
8698.535439	0.100397	0.177729	1518.064575
8698.536335	0.101631	0.177729	1609.125854
8698.537274	0.099327	0.177729	1702.394287
8699.527641	0.677402	0.172831	301.444031
8699.528572	0.456412	0.172831	726.363892
8699.529474	0.101104	0.172831	817.559265
8699.530415	0.100378	0.172831	912.015381
8699.531321	0.099210	0.172831	1001.899841
8699.532220	0.102250	0.172831	1093.822388
8699.533110	0.102393	0.172831	1184.951782
8699.534058	0.099053	0.172831	1278.853760
8699.534959	0.099836	0.172831	1368.806396
8699.535859	0.100928	0.172831	1459.641357
8699.536744	0.100419	0.172831	1548.511963
8699.537680	0.098793	0.172831	1640.981934
8700.574176	0.672982	0.175099	301.496002
8700.575106	0.463030	0.175099	732.113708
8700.576011	0.100382	0.175099	822.959473
8700.576945	0.099650	0.175099	916.032227
8700.577850	0.099353	0.175099	1005.946716
8700.578746	0.101136	0.175099	1096.564941
8700.579634	0.102880	0.175099	1187.922119
8700.580588	0.099144	0.175099	1282.505737
8700.581486	0.099565	0.175099	1371.915527
8700.582383	0.101646	0.175099	1463.091553
8700.583268	0.101140	0.175099	1552.600586
8700.584206	0.098683	0.175099	1645.165161
8701.557219	0.654412	0.199591	295.794037
8701.558140	0.465835	0.199591	724.828003
8701.559047	0.100283	0.199591	815.784851
8701.559935	0.100448	0.199591	904.982666
8701.560892	0.099272	0.199591	999.986389
8701.561795	0.101825	0.199591	1091.934326
8701.562699	0.102521	0.199591	1184.613037
8701.563624	0.099386	0.199591	1276.545044
8701.564526	0.098866	0.199591	1365.722168
8701.565421	0.100657	0.199591	1455.809937
8701.566311	0.101056	0.199591	1545.749756
8701.567248	0.098752	0.199591	1638.280762
8702.604751	0.691769	0.174394	307.145355
8702.605654	0.471793	0.174394	733.174622
8702.606558	0.100778	0.174394	824.277588
8702.607506	0.098950	0.174394	918.082397
8702.608416	0.100573	0.174394	1009.603394
8702.609309	0.101371	0.174394	1100.127563
8702.610232	0.099309	0.174394	1191.789795
8702.611132	0.099163	0.174394	1281.036133
8702.612026	0.101587	0.174394	1371.854858
8702.612913	0.100961	0.174394	1461.406982
8702.613845	0.098983	0.174394	1553.659302
8702.614741	0.099811	0.174394	1643.089722
8703.594977	0.693563	0.209215	316.958405
8703.595879	0.471727	0.209215	742.456421
8703.596828	0.098650	0.209215	836.075195
8703.597723	0.099397	0.209215	925.035461
8703.598626	0.101836	0.209215	1016.993286
8703.599514	0.101371	0.209215	1107.010620
8703.600459	0.098899	0.209215	1200.470093
8703.601370	0.099316	0.209215	1290.947388
8703.602273	0.101766	0.209215	1382.842407
8703.603189	0.099565	0.209215	1474.044312
8703.604102	0.098698	0.209215	1564.155151
8703.605016	0.100649	0.209215	1656.148682
8704.634328	0.692366	0.165826	310.179840
8704.635232	0.472262	0.165826	737.104614
8704.636119	0.100547	0.165826	826.289673
8704.637071	0.098862	0.165826	920.406616
8704.637977	0.099899	0.165826	1010.914795
8704.638872	0.101635	0.165826	1101.877686
8704.639798	0.099690	0.165826	1194.190552
8704.640709	0.099016	0.165826	1284.394287
8704.641615	0.101459	0.165826	1376.315918
8704.642507	0.101331	0.165826	1466.702759
8704.643443	0.099320	0.165826	1559.666382
8704.644348	0.099423	0.165826	1649.643799
8705.640925	0.676633	0.200264	301.778442
8705.641835	0.467739	0.200264	727.421143
8705.642724	0.099727	0.200264	816.078064
8705.643692	0.099229	0.200264	912.131287
8705.644596	0.101301	0.200264	1003.707642
8705.645487	0.101407	0.200264	1094.061646
8705.646415	0.100459	0.200264	1187.287598
8705.647324	0.099218	0.200264	1277.476318
8705.648227	0.101246	0.200264	1368.901733
8705.649115	0.101506	0.200264	1459.039307
8705.650055	0.098716	0.200264	1551.832153
8705.650953	0.099144	0.200264	1640.863770
8706.661862	0.659513	0.174305	305.354492
8706.662791	0.463326	0.174305	735.784729
8706.663686	0.101290	0.174305	826.439514
8706.664637	0.100844	0.174305	922.341675
8706.665551	0.101635	0.174305	1015.235657
8706.666468	0.100459	0.174305	1107.356567
8706.667362	0.101250	0.174305	1197.874023
8706.668316	0.102056	0.174305	1295.235107
8706.669240	0.100598	0.174305	1388.187744
8706.670134	0.101924	0.174305	1479.307617
8706.671081	0.101005	0.174305	1574.958984
8706.671988	0.100950	0.174305	1666.520386
8707.684814	0.723618	0.189524	319.115601
8707.685705	0.473719	0.189524	741.199585
8707.686673	0.098185	0.189524	836.242493
8707.687572	0.099412	0.189524	925.613525
8707.688478	0.100774	0.189524	1016.914673
8707.689374	0.101001	0.189524	1107.411499
8707.690305	0.098928	0.189524	1199.513672
8707.691214	0.101327	0.189524	1291.619873
8707.692102	0.101232	0.189524	1381.513672
8707.693033	0.099390	0.189524	1474.045410
8707.693934	0.099375	0.189524	1563.582275
8707.694840	0.101876	0.189524	1655.882080
8708.693452	0.700737	0.178773	308.324402
8708.694444	0.448993	0.178773	753.725403
8708.695338	0.100620	0.178773	843.679810
8708.696230	0.101675	0.178773	934.373718
8708.697172	0.099814	0.178773	1028.398926
8708.698075	0.101301	0.178773	1119.874023
8708.698990	0.101060	0.178773	1212.343506
8708.699883	0.101459	0.178773	1302.946167
8708.700819	0.099459	0.178773	1396.040039
8708.701733	0.101169	0.178773	1488.508911
8708.702627	0.101891	0.178773	1579.599365
8708.703545	0.100151	0.178773	1671.538330
8709.722612	0.720476	0.183136	346.549011
8709.723550	0.465304	0.183136	783.004089
8709.724459	0.102004	0.183136	875.726074
8709.725356	0.101063	0.183136	966.379761
8709.726291	0.099357	0.183136	1059.278320
8709.727200	0.099507	0.183136	1149.729980
8709.728101	0.101151	0.183136	1240.867187
8709.728992	0.100419	0.183136	1330.340210
8709.729939	0.099141	0.183136	1424.226318
8709.730842	0.100565	0.183136	1515.036621
8709.731730	0.102799	0.183136	1606.322144
8709.732657	0.099067	0.183136	1698.157593
8710.726086	0.719616	0.172348	312.313141
8710.727058	0.428881	0.172348	729.185059
8710.727959	0.101309	0.172348	820.464111
8710.728869	0.101675	0.172348	912.988159
8710.729770	0.101243	0.172348	1004.207825
8710.730717	0.100477	0.172348	1099.359863
8710.731624	0.101375	0.172348	1191.306519
8710.732515	0.102114	0.172348	1282.290283
8710.733440	0.099507	0.172348	1374.334106
8710.734355	0.101232	0.172348	1466.961060
8710.735256	0.101547	0.172348	1558.454590
8710.736143	0.100898	0.172348	1647.951538
8711.756258	0.664032	0.179997	300.806488
8711.757178	0.471844	0.179997	734.903381
8711.758070	0.101210	0.179997	825.182434
8711.758987	0.100602	0.179997	917.434265
8711.759914	0.099349	0.179997	1009.531128
8711.760820	0.100924	0.179997	1100.968384
8711.761717	0.101393	0.179997	1191.917725
8711.762641	0.099463	0.179997	1283.821411
8711.763541	0.099269	0.179997	1373.163330
8711.764437	0.100763	0.179997	1463.446899
8711.765325	0.100613	0.179997	1552.791016
8711.766266	0.098723	0.179997	1645.689453
8712.759793	0.701389	0.173895	335.264008
8712.760743	0.459141	0.173895	771.447632
8712.761635	0.101012	0.173895	861.550293
8712.762521	0.101576	0.173895	951.546570
8712.763466	0.100063	0.173895	1046.106567
8712.764363	0.101323	0.173895	1136.993530
8712.765279	0.102257	0.173895	1230.661011
8712.766178	0.100807	0.173895	1321.286377
8712.767125	0.099474	0.173895	1415.488159
8712.768029	0.100173	0.173895	1506.044922
8712.768922	0.101147	0.173895	1596.369629
8712.769841	0.099760	0.173895	1688.048584
8713.786839	0.692194	0.185770	309.410553
8713.787741	0.475616	0.185770	738.416626
8713.788628	0.100122	0.185770	827.224915
8713.789572	0.099020	0.185770	920.699585
8713.790485	0.100206	0.185770	1012.187927
8713.791383	0.100547	0.185770	1102.479004
8713.792316	0.100159	0.185770	1195.927002
8713.793225	0.099152	0.185770	1286.055786
8713.794126	0.101375	0.185770	1377.394165
8713.795012	0.100573	0.185770	1466.501465
8713.795959	0.099067	0.185770	1560.318237
8713.796868	0.099565	0.185770	1650.823242
8714.796497	0.700243	0.176831	309.507355
8714.797401	0.469490	0.176831	733.926086
8714.798288	0.099730	0.176831	822.386780
8714.799266	0.098698	0.176831	918.912964
8714.800165	0.099463	0.176831	1008.330078
8714.801068	0.101071	0.176831	1099.596802
8714.801959	0.101459	0.176831	1189.996582
8714.802889	0.098800	0.176831	1281.880615
8714.803801	0.100107	0.176831	1373.178589
8714.804698	0.101433	0.176831	1464.164062
8714.805627	0.099265	0.176831	1556.381348
8714.806536	0.098698	0.176831	1646.097412
8715.818444	0.714679	0.203144	314.458740
8715.819404	0.446689	0.203144	743.280640
8715.820313	0.099371	0.203144	833.609192
8715.821204	0.101239	0.203144	923.813171
8715.822132	0.099584	0.203144	1016.226868
8715.823038	0.099126	0.203144	1106.035034
8715.823945	0.101294	0.203144	1197.908691
8715.824832	0.101411	0.203144	1287.860352
8715.825777	0.099207	0.203144	1381.610474
8715.826673	0.099529	0.203144	1470.788330
8715.827573	0.101689	0.203144	1562.308838
8715.828462	0.100961	0.203144	1652.062866
8716.838342	0.724907	0.182789	316.784454
8716.839312	0.464128	0.182789	766.989014
8716.840222	0.100166	0.182789	858.140076
8716.841120	0.102063	0.182789	949.792664
8716.842054	0.099976	0.182789	1043.169922
8716.842965	0.099034	0.182789	1133.390259
8716.843867	0.100920	0.182789	1224.420410
8716.844759	0.100690	0.182789	1314.235596
8716.845713	0.099042	0.182789	1408.721436
8716.846616	0.099661	0.182789	1498.714966
8716.847512	0.101144	0.182789	1589.339844
8716.848403	0.100115	0.182789	1678.542114
8717.847017	0.673206	0.211664	311.020966
8717.847927	0.469541	0.211664	738.303284
8717.848815	0.100378	0.211664	827.439331
8717.849735	0.101184	0.211664	920.528687
8717.850670	0.100404	0.211664	1014.406494
8717.851583	0.101254	0.211664	1106.851074
8717.852479	0.101243	0.211664	1197.564453
8717.853427	0.099664	0.211664	1292.046265
8717.854340	0.100283	0.211664	1383.604858
8717.855273	0.100745	0.211664	1477.599609
8717.856159	0.100569	0.211664	1566.703613
8717.857122	0.101667	0.211664	1664.609375
8718.885395	0.555040	0.175220	283.625580
8718.886318	0.456332	0.175220	704.819824
8718.887215	0.100305	0.175220	794.793579
8718.888106	0.101012	0.175220	884.795227
8718.889047	0.099313	0.175220	978.248535
8718.889961	0.099774	0.175220	1069.442139
8718.890855	0.101353	0.175220	1160.051270
8718.891794	0.099697	0.175220	1253.666992
8718.892698	0.099239	0.175220	1343.379517
8718.893600	0.100876	0.175220	1434.370117
8718.894488	0.100836	0.175220	1523.912598
8718.895440	0.099133	0.175220	1618.287476
8719.872461	0.718491	0.208341	316.854614
8719.873446	0.455248	0.208341	765.273682
8719.874345	0.100236	0.208341	855.385498
8719.875261	0.101444	0.208341	948.308289
8719.876165	0.101759	0.208341	1040.298462
8719.877108	0.100990	0.208341	1135.531982
8719.878033	0.100719	0.208341	1228.697021
8719.878925	0.101345	0.208341	1319.096924
8719.879864	0.101118	0.208341	1414.046875
8719.880777	0.100078	0.208341	1505.418213
8719.881703	0.100851	0.208341	1598.806030
8719.882595	0.100356	0.208341	1688.323975
8720.926165	0.681720	0.178729	299.275055
8720.927073	0.472665	0.178729	728.454712
8720.927958	0.100902	0.178729	817.753052
8720.928906	0.099181	0.178729	911.776550
8720.929811	0.100133	0.178729	1002.396973
8720.930698	0.101946	0.178729	1092.822876
8720.931629	0.099294	0.178729	1185.265991
8720.932537	0.098804	0.178729	1274.979736
8720.933440	0.101686	0.178729	1366.802002
8720.934333	0.100583	0.178729	1456.623047
8720.935286	0.098672	0.178729	1550.657349
8720.936187	0.099012	0.178729	1639.867554
8721.904077	0.705311	0.199055	308.926361
8721.905041	0.428632	0.199055	722.127197
8721.905948	0.098844	0.199055	811.778687
8721.906849	0.101862	0.199055	903.555969
8721.907732	0.101547	0.199055	993.221619
8721.908655	0.099188	0.199055	1084.772339
8721.909568	0.099825	0.199055	1175.912964
8721.910467	0.101078	0.199055	1266.781982
8721.911392	0.099968	0.199055	1359.252686
8721.912308	0.099071	0.199055	1450.001709
8721.913219	0.101818	0.199055	1542.757568
8721.914117	0.102440	0.199055	1634.748901
8722.956747	0.718268	0.204111	315.319580
8722.957640	0.480227	0.204111	744.162354
8722.958601	0.098529	0.204111	838.848755
8722.959511	0.099902	0.204111	929.759888
8722.960407	0.101825	0.204111	1020.995056
8722.961354	0.100243	0.204111	1115.925049
8722.962256	0.098811	0.204111	1205.052612
8722.963153	0.100789	0.204111	1295.459961
8722.964055	0.101272	0.204111	1386.807251
8722.964989	0.098628	0.204111	1478.925781
8722.965895	0.099207	0.204111	1568.806885
8722.966803	0.100723	0.204111	1660.263062
8723.948035	0.726427	0.182584	360.307800
8723.948965	0.464626	0.182584	792.410400
8723.949874	0.100726	0.182584	883.970642
8723.950762	0.100496	0.182584	973.210754
8723.951698	0.099009	0.182584	1065.882935
8723.952600	0.099489	0.182584	1155.621582
8723.953495	0.101774	0.182584	1246.708984
8723.954383	0.100034	0.182584	1335.539307
8723.955316	0.099027	0.182584	1427.931641
8723.956229	0.100411	0.182584	1519.607178
8723.957128	0.102253	0.182584	1611.532959
8723.958044	0.099558	0.182584	1702.728149
8724.979162	0.675996	0.223225	302.170258
8724.980070	0.472614	0.223225	731.303345
8724.980966	0.099393	0.223225	820.359741
8724.981899	0.098804	0.223225	912.543579
8724.982808	0.100162	0.223225	1003.591187
8724.983698	0.101228	0.223225	1093.684082
8724.984625	0.099500	0.223225	1185.920166
8724.985538	0.098665	0.223225	1276.000854
8724.986438	0.101539	0.223225	1367.386230
8724.987327	0.100961	0.223225	1457.140259
8724.988269	0.098928	0.223225	1550.330688
8724.989171	0.099401	0.223225	1639.990112
8726.000078	0.714199	0.179385	314.247681
8726.001029	0.442321	0.179385	734.894531
8726.001950	0.098203	0.179385	825.339600
8726.002862	0.101488	0.179385	917.896667
8726.003758	0.102433	0.179385	1009.676514
8726.004688	0.099221	0.179385	1101.952271
8726.005598	0.099595	0.179385	1192.583496
8726.006500	0.100800	0.179385	1283.504639
8726.007387	0.100957	0.179385	1373.053467
8726.008332	0.099049	0.179385	1466.654785
8726.009236	0.100280	0.179385	1557.307495
8726.010127	0.101122	0.179385	1647.406982
8727.002593	0.664918	0.217940	301.872864
8727.003496	0.456603	0.217940	714.185181
8727.004463	0.099280	0.217940	810.188721
8727.005369	0.099185	0.217940	900.049927
8727.006266	0.102858	0.217940	992.313232
8727.007154	0.100569	0.217940	1081.618408
8727.008080	0.098998	0.217940	1173.290405
8727.008983	0.099507	0.217940	1263.145020
8727.009889	0.101298	0.217940	1354.920654
8727.010788	0.099902	0.217940	1444.732910
8727.011733	0.098804	0.217940	1538.102417
8727.012642	0.099833	0.217940	1628.850342
8728.037886	0.609917	0.194620	295.199829
8728.038807	0.461276	0.194620	720.034668
8728.039704	0.101239	0.194620	810.846069
8728.040592	0.100540	0.194620	900.125183
8728.041545	0.099254	0.194620	994.714355
8728.042457	0.100741	0.194620	1086.590088
8728.043355	0.101071	0.194620	1177.351440
8728.044291	0.099833	0.194620	1270.794922
8728.045193	0.098983	0.194620	1360.077759
8728.046093	0.101202	0.194620	1451.159912
8728.046982	0.101455	0.194620	1541.353516
8728.047931	0.098624	0.194620	1634.947998
8729.041360	0.694318	0.195897	306.194061
8729.042289	0.462089	0.195897	735.474426
8729.043192	0.101528	0.195897	827.154480
8729.044123	0.099888	0.195897	920.149902
8729.045023	0.099119	0.195897	1009.356689
8729.045925	0.101422	0.195897	1100.839478
8729.046811	0.101034	0.195897	1190.355591
8729.047743	0.098848	0.195897	1282.481567
8729.048645	0.099148	0.195897	1371.912964
8729.049551	0.101279	0.195897	1463.671997
8729.050441	0.100426	0.195897	1553.051147
8729.051390	0.098566	0.195897	1646.589966
8730.064363	0.645784	0.215491	299.643646
8730.065284	0.462198	0.215491	725.328430
8730.066185	0.100609	0.215491	815.977234
8730.067070	0.100228	0.215491	904.679260
8730.068019	0.098859	0.215491	998.496094
8730.068928	0.100071	0.215491	1089.460449
8730.069825	0.100939	0.215491	1180.002441
8730.070761	0.099441	0.215491	1273.079102
8730.071673	0.099012	0.215491	1363.378418
8730.072575	0.101671	0.215491	1455.085815
8730.073466	0.101495	0.215491	1545.518188
8730.074413	0.099020	0.215491	1639.289917
8731.092428	0.719564	0.190221	315.888702
8731.093322	0.480688	0.190221	745.624207
8731.094270	0.098386	0.190221	838.894348
8731.095177	0.099767	0.190221	929.382874
8731.096083	0.100887	0.190221	1020.786926
8731.096973	0.100294	0.190221	1110.048706
8731.097922	0.098998	0.190221	1203.997559
8731.098827	0.100518	0.190221	1294.965942
8731.099719	0.101440	0.190221	1385.450806
8731.100669	0.099016	0.190221	1479.516113
8731.101572	0.098617	0.190221	1568.567261
8731.102469	0.100873	0.190221	1659.050171
8732.082642	0.705912	0.212276	312.718933
8732.083532	0.481150	0.212276	740.942322
8732.084482	0.098199	0.212276	834.231812
8732.085403	0.100345	0.212276	926.649963
8732.086305	0.101620	0.212276	1018.311096
8732.087239	0.099675	0.212276	1111.407837
8732.088143	0.098782	0.212276	1200.706543
8732.089049	0.101506	0.212276	1292.671265
8732.089941	0.101034	0.212276	1382.793579
8732.090885	0.099012	0.212276	1476.261353
8732.091780	0.099906	0.212276	1565.677246
8732.092678	0.101927	0.212276	1657.208130
8733.135326	0.697826	0.194705	316.812958
8733.136228	0.464337	0.194705	735.645020
8733.137170	0.099155	0.194705	829.049316
8733.138067	0.099280	0.194705	918.103271
8733.138972	0.102209	0.194705	1010.602844
8733.139862	0.100627	0.194705	1100.161255
8733.140799	0.099214	0.194705	1193.124634
8733.141699	0.099950	0.194705	1283.079590
8733.142604	0.101536	0.194705	1374.969360
8733.143509	0.099379	0.194705	1464.907104
8733.144447	0.098851	0.194705	1557.629639
8733.145358	0.100785	0.194705	1649.444702
8734.116304	0.733074	0.188175	323.285492
8734.117199	0.475455	0.188175	748.817993
8734.118144	0.099064	0.188175	842.433228
8734.119051	0.100408	0.188175	933.503052
8734.119970	0.101195	0.188175	1026.501343
8734.120861	0.101243	0.188175	1116.708618
8734.121835	0.100521	0.188175	1214.616333
8734.122739	0.100514	0.188175	1305.480957
8734.123631	0.102078	0.188175	1396.534180
8734.124561	0.099657	0.188175	1489.215210
8734.125463	0.100946	0.188175	1580.268555
8734.126385	0.100836	0.188175	1673.239502
8735.164902	0.659220	0.215443	301.922729
8735.165802	0.476180	0.215443	730.485107
8735.166736	0.098917	0.215443	822.873779
8735.167646	0.098646	0.215443	912.641846
8735.168548	0.100507	0.215443	1003.298767
8735.169444	0.101257	0.215443	1094.025391
8735.170374	0.098987	0.215443	1186.083130
8735.171274	0.099606	0.215443	1275.728271
8735.172185	0.101748	0.215443	1368.420776
8735.173075	0.101345	0.215443	1458.618042
8735.174015	0.099038	0.215443	1551.713867
8735.174926	0.099800	0.215443	1642.631470
8736.162252	0.699994	0.178596	307.297333
8736.163144	0.470314	0.178596	726.817139
8736.164118	0.098254	0.178596	822.516907
8736.165025	0.100016	0.178596	913.231323
8736.165919	0.100767	0.178596	1003.316650
8736.166858	0.099470	0.178596	1096.719238
8736.167758	0.098723	0.178596	1185.570068
8736.168653	0.101122	0.178596	1276.074097
8736.169542	0.101166	0.178596	1366.010498
8736.170482	0.098925	0.178596	1458.999634
8736.171384	0.100188	0.178596	1549.369141
8736.172284	0.100968	0.178596	1640.240356
8737.187291	0.686591	0.220514	306.905975
8737.188220	0.444038	0.220514	719.417358
8737.189112	0.101027	0.220514	809.533081
8737.190056	0.099771	0.220514	903.716431
8737.190954	0.098917	0.220514	992.544128
8737.191852	0.102048	0.220514	1084.183594
8737.192743	0.101122	0.220514	1174.283203
8737.193683	0.098840	0.220514	1267.193115
8737.194585	0.099045	0.220514	1356.532104
8737.195491	0.101177	0.220514	1448.198242
8737.196379	0.099954	0.220514	1536.957031
8737.197329	0.098353	0.220514	1630.392578
8738.208211	0.677589	0.185738	303.559937
8738.209108	0.481443	0.185738	735.414185
8738.210051	0.099034	0.185738	828.803650
8738.210958	0.099218	0.185738	918.793945
8738.211861	0.101008	0.185738	1010.004456
8738.212748	0.100148	0.185738	1098.835449
8738.213695	0.098621	0.185738	1192.229126
8738.214604	0.099803	0.185738	1282.950439
8738.215494	0.101477	0.185738	1373.265015
8738.216412	0.099609	0.185738	1464.706421
8738.217319	0.098613	0.185738	1554.148682
8738.218222	0.101199	0.185738	1645.531128
8739.213796	0.729503	0.215644	338.489471
8739.214758	0.414672	0.215644	737.403564
8739.215656	0.100763	0.215644	827.888672
8739.216544	0.101276	0.215644	917.821411
8739.217486	0.099342	0.215644	1011.401611
8739.218400	0.100653	0.215644	1103.398560
8739.219321	0.101591	0.215644	1196.963501
8739.220222	0.100763	0.215644	1287.750854
8739.221182	0.099825	0.215644	1383.583252
8739.222085	0.101334	0.215644	1475.088013
8739.222974	0.101224	0.215644	1565.076416
8739.223911	0.100148	0.215644	1658.914795
8740.248033	0.673513	0.189492	307.122009
8740.248927	0.470515	0.189492	727.762512
8740.249884	0.099111	0.189492	822.612061
8740.250781	0.099159	0.189492	911.557617
8740.251683	0.101605	0.189492	1003.205566
8740.252571	0.100210	0.189492	1092.192017
8740.253516	0.099100	0.189492	1185.841797
8740.254436	0.100071	0.189492	1277.906982
8740.255340	0.101265	0.189492	1369.450195
8740.256269	0.099774	0.189492	1462.140381
8740.257173	0.098804	0.189492	1551.458984
8740.258079	0.100345	0.189492	1642.371948
8741.247450	0.686990	0.198568	304.336456
8741.248361	0.477755	0.198568	739.571411
8741.249292	0.101331	0.198568	833.910156
8741.250177	0.100206	0.198568	922.592712
8741.251134	0.100466	0.198568	1018.738953
8741.252025	0.101254	0.198568	1108.955933
8741.252914	0.100917	0.198568	1198.670898
8741.253848	0.099456	0.198568	1291.562378
8741.254762	0.100430	0.198568	1383.355103
8741.255683	0.100690	0.198568	1476.090332
8741.256585	0.102927	0.198568	1568.930664
8741.257543	0.099792	0.198568	1664.531860
8742.281674	0.700631	0.194080	308.978302
8742.282572	0.475312	0.194080	735.808899
8742.283537	0.098306	0.194080	830.673889
8742.284448	0.100682	0.194080	922.395508
8742.285335	0.101561	0.194080	1012.480347
8742.286270	0.099485	0.194080	1105.498657
8742.287174	0.099144	0.194080	1195.125122
8742.288073	0.101038	0.194080	1285.957886
8742.288963	0.100891	0.194080	1375.750977
8742.289917	0.099001	0.194080	1470.198364
8742.290821	0.100155	0.194080	1560.738525
8742.291720	0.100917	0.194080	1651.462646
8743.286216	0.718586	0.186640	315.459442
8743.287192	0.468457	0.186640	772.673462
8743.288102	0.101041	0.186640	864.621033
8743.289024	0.101891	0.186640	958.564392
8743.289913	0.100854	0.186640	1048.223999
8743.290871	0.100302	0.186640	1144.312866
8743.291768	0.100649	0.186640	1234.595337
8743.292660	0.101331	0.186640	1324.982178
8743.293605	0.099653	0.186640	1419.154541
8743.294498	0.101829	0.186640	1510.087524
8743.295415	0.101554	0.186640	1603.212524
8743.296316	0.101349	0.186640	1694.527832
8744.312268	0.700814	0.201867	309.059052
8744.313251	0.456555	0.201867	757.852783
8744.314160	0.099576	0.201867	848.367737
8744.315056	0.101052	0.201867	938.910522
8744.315998	0.099243	0.201867	1032.397583
8744.316894	0.098862	0.201867	1120.978271
8744.317796	0.102367	0.201867	1213.313232
8744.318685	0.099954	0.201867	1302.171997
8744.319629	0.099086	0.201867	1395.708862
8744.320533	0.100342	0.201867	1486.417847
8744.321440	0.101221	0.201867	1578.224976
8744.322326	0.099565	0.201867	1666.439941
8745.323003	0.708146	0.190918	342.034424
8745.323929	0.471735	0.190918	778.860718
8745.324833	0.100884	0.190918	870.059692
8745.325721	0.100342	0.190918	959.163208
8745.326671	0.099053	0.190918	1053.263306
8745.327579	0.100605	0.190918	1144.613037
8745.328478	0.100763	0.190918	1235.198975
8745.329364	0.099917	0.190918	1323.725464
8745.330309	0.099148	0.190918	1417.420288
8745.331205	0.101005	0.190918	1507.920410
8745.332095	0.100664	0.190918	1597.511475
8745.333028	0.099075	0.190918	1689.948120
8746.342881	0.673033	0.211314	302.865051
8746.343809	0.473719	0.211314	742.476685
8746.344699	0.100137	0.211314	831.598389
8746.345626	0.100679	0.211314	924.927551
8746.346533	0.098892	0.211314	1014.622253
8746.347434	0.100844	0.211314	1105.482300
8746.348335	0.101342	0.211314	1196.791016
8746.349258	0.098683	0.211314	1287.875244
8746.350167	0.099298	0.211314	1378.137207
8746.351072	0.101375	0.211314	1469.881104
8746.351962	0.100408	0.211314	1559.244019
8746.352906	0.099020	0.211314	1652.718628
8747.359706	0.686737	0.196413	304.224518
8747.360625	0.474899	0.196413	740.656372
8747.361525	0.101125	0.196413	831.669312
8747.362461	0.098932	0.196413	924.269531
8747.363366	0.099430	0.196413	1014.253601
8747.364268	0.102012	0.196413	1106.268188
8747.365155	0.101257	0.196413	1196.083496
8747.366103	0.098877	0.196413	1289.818848
8747.367001	0.100818	0.196413	1380.353271
8747.367903	0.101525	0.196413	1471.928467
8747.368827	0.100353	0.196413	1564.654419
8747.369731	0.099188	0.196413	1654.320557
8748.375497	0.713848	0.219672	312.665253
8748.376487	0.461001	0.219672	769.056152
8748.377392	0.100349	0.219672	859.872131
8748.378282	0.100499	0.219672	949.316467
8748.379210	0.099895	0.219672	1042.019043
8748.380126	0.099591	0.219672	1133.244507
8748.381028	0.101558	0.219672	1224.849487
8748.381913	0.101180	0.219672	1314.394165
8748.382845	0.099012	0.219672	1406.673828
8748.383761	0.099946	0.219672	1498.224609
8748.384664	0.100298	0.219672	1588.793579
8748.385552	0.100298	0.219672	1677.858032
8749.395467	0.715800	0.198282	359.331390
8749.396390	0.456929	0.198282	781.076599
8749.397292	0.101371	0.198282	872.513123
8749.398177	0.100778	0.198282	961.701294
8749.399115	0.099067	0.198282	1054.626465
8749.400022	0.100503	0.198282	1145.782593
8749.400931	0.101902	0.198282	1238.411377
8749.401818	0.100818	0.198282	1327.836792
8749.402769	0.099174	0.198282	1422.150879
8749.403677	0.100807	0.198282	1513.683594
8749.404573	0.102004	0.198282	1605.079590
8749.405510	0.099840	0.198282	1698.629761
8750.413269	0.686243	0.216277	303.319275
8750.414180	0.476459	0.216277	737.373169
8750.415069	0.099218	0.216277	825.577576
8750.416026	0.099078	0.216277	920.395569
8750.416936	0.100953	0.216277	1012.263123
8750.417837	0.101840	0.216277	1104.020630
8750.418784	0.099382	0.216277	1198.135742
8750.419678	0.098979	0.216277	1286.623413
8750.420571	0.101840	0.216277	1377.566162
8750.421459	0.100961	0.216277	1467.219238
8750.422391	0.098851	0.216277	1559.348633
8750.423298	0.100052	0.216277	1650.096191
8751.428050	0.719355	0.199265	315.797058
8751.429014	0.424977	0.199265	725.474731
8751.429923	0.099225	0.199265	815.670105
8751.430815	0.100356	0.199265	905.188049
8751.431744	0.100496	0.199265	998.548462
8751.432663	0.099239	0.199265	1089.749512
8751.433569	0.101038	0.199265	1181.289551
8751.434468	0.102360	0.199265	1273.310791
8751.435401	0.099609	0.199265	1366.246338
8751.436306	0.099382	0.199265	1456.187378
8751.437212	0.101378	0.199265	1548.036011
8751.438104	0.100909	0.199265	1638.047241
8752.451019	0.728152	0.207297	316.017914
8752.451972	0.457687	0.207297	752.193420
8752.452882	0.098749	0.207297	842.054810
8752.453783	0.101353	0.207297	933.373413
8752.454675	0.101429	0.207297	1023.848450
8752.455628	0.099254	0.207297	1118.437622
8752.456534	0.100031	0.207297	1209.065308
8752.457428	0.101378	0.207297	1299.697388
8752.458343	0.099998	0.207297	1391.195190
8752.459251	0.098511	0.207297	1480.642944
8752.460159	0.100485	0.207297	1571.882935
8752.461046	0.100569	0.207297	1661.087524
8753.459734	0.703656	0.195655	362.382843
8753.460656	0.459188	0.195655	785.754395
8753.461583	0.100635	0.195655	879.042847
8753.462472	0.102378	0.195655	970.056824
8753.463431	0.100957	0.195655	1066.874634
8753.464331	0.101023	0.195655	1157.795288
8753.465223	0.100858	0.195655	1247.760742
8753.466125	0.100488	0.195655	1338.401123
8753.467061	0.100847	0.195655	1432.794067
8753.467978	0.102096	0.195655	1526.416016
8753.468868	0.100792	0.195655	1616.121094
8753.469834	0.100166	0.195655	1712.881470
8754.490830	0.714481	0.197944	315.800690
8754.491796	0.432367	0.197944	733.467163
8754.492705	0.098368	0.197944	822.883606
8754.493599	0.101243	0.197944	913.394531
8754.494486	0.100781	0.197944	1002.787476
8754.495419	0.098833	0.197944	1094.998657
8754.496326	0.099749	0.197944	1185.470581
8754.497221	0.101792	0.197944	1276.574463
8754.498148	0.099781	0.197944	1369.071899
8754.499064	0.098939	0.197944	1459.700195
8754.499970	0.101411	0.197944	1551.578735
8754.500859	0.101788	0.197944	1642.068604
8755.492354	0.716041	0.202044	356.588562
8755.493272	0.458987	0.202044	777.938477
8755.494200	0.099987	0.202044	870.726013
8755.495088	0.101678	0.202044	961.016479
8755.496037	0.099474	0.202044	1055.417236
8755.496940	0.101118	0.202044	1146.726929
8755.497860	0.101327	0.202044	1239.947632
8755.498745	0.100034	0.202044	1328.477905
8755.499691	0.100898	0.202044	1423.927856
8755.500598	0.100616	0.202044	1515.187012
8755.501486	0.101525	0.202044	1605.340942
8755.502418	0.099489	0.202044	1698.064209
8756.526544	0.714144	0.187651	316.365906
8756.527438	0.480586	0.187651	746.009705
8756.528399	0.098309	0.187651	840.484985
8756.529303	0.099994	0.187651	930.879456
8756.530206	0.102067	0.187651	1023.045654
8756.531093	0.100488	0.187651	1112.178711
8756.532029	0.099027	0.187651	1204.868042
8756.532939	0.100649	0.187651	1296.458984
8756.533835	0.101107	0.187651	1387.051025
8756.534767	0.099628	0.187651	1479.904053
8756.535674	0.098807	0.187651	1569.522339
8756.536584	0.101345	0.187651	1661.746460
8757.529042	0.700884	0.214996	309.790649
8757.529953	0.466168	0.214996	734.469849
8757.530843	0.101488	0.214996	824.794189
8757.531775	0.099551	0.214996	917.575500
8757.532683	0.100093	0.214996	1008.459717
8757.533574	0.101202	0.214996	1098.631104
8757.534463	0.100829	0.214996	1188.267944
8757.535410	0.098983	0.214996	1282.005005
8757.536311	0.101008	0.214996	1373.013428
8757.537209	0.102393	0.214996	1464.961914
8757.538099	0.099785	0.214996	1553.770752
8757.539066	0.098591	0.214996	1649.108521
8758.556122	0.686920	0.190991	309.800995
8758.557021	0.475822	0.190991	737.564575
8758.557977	0.098595	0.190991	831.821350
8758.558877	0.099207	0.190991	921.107239
8758.559778	0.100781	0.190991	1011.911133
8758.560666	0.101642	0.190991	1102.169067
8758.561603	0.098866	0.190991	1194.806519
8758.562516	0.099408	0.190991	1285.565918
8758.563417	0.100719	0.190991	1376.313721
8758.564324	0.099803	0.190991	1466.835449
8758.565255	0.099097	0.190991	1559.094482
8758.566160	0.100862	0.190991	1650.374390
8759.567865	0.661791	0.223721	320.968506
8759.568791	0.459723	0.223721	746.671875
8759.569695	0.100961	0.223721	837.940369
8759.570584	0.100770	0.223721	927.525146
8759.571538	0.098998	0.223721	1021.969055
8759.572451	0.099954	0.223721	1113.226685
8759.573351	0.100521	0.223721	1203.695801
8759.574270	0.099781	0.223721	1295.395020
8759.575177	0.098643	0.223721	1384.863892
8759.576088	0.099807	0.223721	1475.788208
8759.576975	0.101653	0.223721	1565.954224
8759.577909	0.099016	0.223721	1658.435303
8760.582625	0.645286	0.189669	294.895508
8760.583526	0.478151	0.189669	725.709229
8760.584488	0.098914	0.189669	820.864075
8760.585392	0.099316	0.189669	910.646118
8760.586291	0.101444	0.189669	1001.844360
8760.587176	0.101572	0.189669	1091.735840
8760.588108	0.098947	0.189669	1183.953979
8760.589018	0.099899	0.189669	1274.861816
8760.589913	0.101715	0.189669	1365.896851
8760.590836	0.099089	0.189669	1457.356323
8760.591761	0.098558	0.189669	1548.522827
8760.592669	0.100375	0.189669	1639.663086
8761.612766	0.700488	0.212852	315.219727
8761.613661	0.467443	0.212852	733.580811
8761.614619	0.098492	0.212852	827.936523
8761.615513	0.100682	0.212852	917.946533
8761.616416	0.102034	0.212852	1010.082947
8761.617321	0.100408	0.212852	1100.951904
8761.618252	0.099199	0.212852	1193.306396
8761.619158	0.100485	0.212852	1284.345459
8761.620061	0.100898	0.212852	1375.456787
8761.620989	0.098998	0.212852	1467.326782
8761.621895	0.098719	0.212852	1556.766602
8761.622791	0.102480	0.212852	1648.589111
8762.607054	0.711010	0.198133	312.844177
8762.608030	0.457214	0.198133	759.085327
8762.608939	0.099203	0.198133	849.260742
8762.609833	0.101239	0.198133	939.768433
8762.610771	0.099313	0.198133	1032.923828
8762.611664	0.098888	0.198133	1121.230713
8762.612566	0.102990	0.198133	1214.127197
8762.613456	0.101763	0.198133	1304.696045
8762.614393	0.099093	0.198133	1397.546143
8762.615292	0.099426	0.198133	1486.930420
8762.616198	0.101396	0.198133	1578.795654
8762.617087	0.099946	0.198133	1667.647949
8763.655637	0.686671	0.203043	307.628662
8763.656539	0.479868	0.203043	740.469727
8763.657493	0.098650	0.203043	834.581726
8763.658391	0.098774	0.203043	923.281128
8763.659291	0.102026	0.203043	1015.104858
8763.660181	0.100455	0.203043	1104.510132
8763.661124	0.098936	0.203043	1197.806396
8763.662030	0.100239	0.203043	1288.623169
8763.662928	0.101682	0.203043	1379.933716
8763.663843	0.100302	0.203043	1471.709595
8763.664768	0.099111	0.203043	1563.387573
8763.665674	0.100745	0.203043	1654.662231
8764.638684	0.672612	0.212115	303.348145
8764.639586	0.473207	0.212115	730.180664
8764.640529	0.098998	0.212115	823.535583
8764.641431	0.098789	0.212115	912.643311
8764.642325	0.101136	0.212115	1003.059326
8764.643211	0.100737	0.212115	1092.312622
8764.644151	0.098851	0.212115	1185.232910
8764.645062	0.099767	0.212115	1276.120483
8764.645969	0.100668	0.212115	1367.426147
8764.646855	0.100701	0.212115	1456.646973
8764.647811	0.098884	0.212115	1551.180298
8764.648711	0.100884	0.212115	1641.975708
8765.690365	0.719689	0.196884	350.488403
8765.691295	0.469969	0.196884	787.559998
8765.692203	0.100115	0.196884	878.464172
8765.693097	0.102162	0.196884	969.796875
8765.694038	0.099192	0.196884	1063.136475
8765.694940	0.099320	0.196884	1152.723145
8765.695840	0.102140	0.196884	1244.649048
8765.696726	0.100118	0.196884	1333.354004
8765.697659	0.099067	0.196884	1425.783936
8765.698567	0.101030	0.196884	1517.519409
8765.699467	0.101627	0.196884	1608.983887
8765.700394	0.100078	0.196884	1701.756348
8766.679495	0.727888	0.222879	315.903473
8766.680461	0.367749	0.222879	671.149048
8766.681381	0.098467	0.222879	761.738525
8766.682284	0.101737	0.222879	853.607117
8766.683175	0.101415	0.222879	943.967712
8766.684127	0.098990	0.222879	1038.206665
8766.685023	0.099573	0.222879	1127.423828
8766.685926	0.101971	0.222879	1219.504028
8766.686833	0.100214	0.222879	1310.397827
8766.687772	0.098529	0.222879	1402.916626
8766.688681	0.100129	0.222879	1493.934204
8766.689577	0.101012	0.222879	1584.440918
8767.714776	0.675546	0.197996	303.995544
8767.715684	0.480835	0.197996	740.593689
8767.716572	0.099891	0.197996	829.297241
8767.717527	0.099031	0.197996	923.871643
8767.718444	0.100111	0.197996	1015.673523
8767.719339	0.101550	0.197996	1106.561035
8767.720278	0.099503	0.197996	1199.994507
8767.721176	0.098672	0.197996	1288.601807
8767.722077	0.102063	0.197996	1380.560547
8767.722968	0.101268	0.197996	1470.790649
8767.723912	0.098661	0.197996	1563.926514
8767.724810	0.098793	0.197996	1652.642334
8768.724432	0.690498	0.218315	305.200134
8768.725332	0.480055	0.218315	737.249573
8768.726222	0.100503	0.218315	826.697205
8768.727165	0.098983	0.218315	920.038330
8768.728076	0.099760	0.218315	1010.919250
8768.728984	0.101975	0.218315	1103.512695
8768.729871	0.100514	0.218315	1192.668579
8768.730820	0.098917	0.218315	1286.541016
8768.731725	0.100063	0.218315	1377.098511
8768.732621	0.101151	0.218315	1467.729980
8768.733557	0.099302	0.218315	1560.676392
8768.734455	0.098862	0.218315	1649.454712
8769.739207	0.718894	0.206802	314.875610
8769.740101	0.460847	0.206802	726.872986
8769.741073	0.098134	0.206802	822.258789
8769.741971	0.100111	0.206802	912.158569
8769.742860	0.102473	0.206802	1003.257202
8769.743813	0.100009	0.206802	1098.565308
8769.744709	0.099463	0.206802	1187.684082
8769.745618	0.100558	0.206802	1279.091187
8769.746511	0.102250	0.206802	1370.400269
8769.747456	0.099020	0.206802	1463.973999
8769.748363	0.099591	0.206802	1554.303101
8769.749263	0.101536	0.206802	1645.685181
8770.769354	0.708109	0.206447	311.568024
8770.770346	0.444778	0.206447	752.787598
8770.771256	0.099038	0.206447	842.912231
8770.772159	0.101777	0.206447	934.817200
8770.773051	0.100089	0.206447	1024.096680
8770.773985	0.098822	0.206447	1116.396484
8770.774894	0.100184	0.206447	1207.463989
8770.775787	0.101199	0.206447	1297.834473
8770.776714	0.099547	0.206447	1390.114624
8770.777617	0.098844	0.206447	1479.370728
8770.778516	0.101301	0.206447	1570.440552
8770.779406	0.101100	0.206447	1660.419434
8771.771850	0.717898	0.219858	315.157196
8771.772748	0.470610	0.219858	737.765320
8771.773733	0.098302	0.219858	834.592773
8771.774634	0.099631	0.219858	924.360596
8771.775529	0.101726	0.219858	1015.405457
8771.776461	0.101082	0.219858	1109.613403
8771.777363	0.098873	0.219858	1198.797119
8771.778263	0.102092	0.219858	1290.680176
8771.779164	0.101353	0.219858	1381.998779
8771.780095	0.099335	0.219858	1474.479370
8771.780997	0.099430	0.219858	1564.165161
8771.781901	0.101422	0.219858	1655.850708
8772.803071	0.729657	0.199494	359.720886
8772.803992	0.440929	0.199494	765.816467
8772.804894	0.100909	0.199494	856.836792
8772.805785	0.100869	0.199494	946.711182
8772.806716	0.098873	0.199494	1038.762207
8772.807627	0.099408	0.199494	1129.322876
8772.808530	0.100972	0.199494	1220.500244
8772.809419	0.101268	0.199494	1310.527832
8772.810381	0.099001	0.199494	1405.767212
8772.811291	0.099961	0.199494	1496.731689
8772.812194	0.101730	0.199494	1588.593628
8772.813128	0.099386	0.199494	1681.420166
8773.811659	0.718901	0.231093	312.722107
8773.812559	0.482205	0.231093	746.706299
8773.813518	0.098478	0.231093	841.146484
8773.814427	0.100430	0.231093	932.437073
8773.815327	0.102268	0.231093	1024.478271
8773.816256	0.099313	0.231093	1116.739868
8773.817154	0.098643	0.231093	1205.320923
8773.818068	0.101206	0.231093	1297.823242
8773.818959	0.101536	0.231093	1388.291504
8773.819901	0.098588	0.231093	1481.161011
8773.820806	0.098829	0.231093	1570.601562
8773.821707	0.100909	0.231093	1661.520996
8774.828523	0.699485	0.198318	329.457367
8774.829432	0.443101	0.198318	732.235779
8774.830364	0.099946	0.198318	825.385742
8774.831285	0.100968	0.198318	918.377319
8774.832180	0.102195	0.198318	1009.841675
8774.833072	0.101528	0.198318	1100.404907
8774.834010	0.099152	0.198318	1193.409180
8774.834915	0.101338	0.198318	1285.119995
8774.835840	0.101027	0.198318	1378.569580
8774.836731	0.100459	0.198318	1468.078491
8774.837680	0.099833	0.198318	1562.819824
8774.838585	0.100994	0.198318	1654.219116
8775.853534	0.675190	0.229014	301.810089
8775.854459	0.472672	0.229014	739.031799
8775.855355	0.100247	0.229014	828.852722
8775.856287	0.098804	0.229014	920.937744
8775.857192	0.099554	0.229014	1011.034546
8775.858098	0.100880	0.229014	1102.431885
8775.858987	0.100785	0.229014	1192.029663
8775.859935	0.099027	0.229014	1285.907349
8775.860839	0.100016	0.229014	1376.321655
8775.861727	0.101393	0.229014	1466.358521
8775.862640	0.099580	0.229014	1557.275146
8775.863556	0.098917	0.229014	1647.883301
8776.855016	0.707406	0.202262	330.358612
8776.855930	0.476338	0.202262	765.731445
8776.856863	0.099741	0.202262	858.789978
8776.857780	0.100920	0.202262	951.333984
8776.858688	0.101232	0.202262	1043.252319
8776.859575	0.102169	0.202262	1133.876343
8776.860507	0.099294	0.202262	1226.418701
8776.861422	0.100364	0.202262	1318.251587
8776.862342	0.100898	0.202262	1411.078125
8776.863233	0.100807	0.202262	1500.897095
8776.864188	0.099990	0.202262	1596.387817
8776.865091	0.101166	0.202262	1687.740479
8777.898442	0.714313	0.217739	312.868988
8777.899413	0.401733	0.217739	702.952148
8777.900309	0.098276	0.217739	791.007751
8777.901206	0.101243	0.217739	881.822449
8777.902092	0.101180	0.217739	971.468323
8777.903037	0.098679	0.217739	1064.720215
8777.903943	0.099803	0.217739	1155.142212
8777.904846	0.101437	0.217739	1246.739624
8777.905769	0.099723	0.217739	1338.783813
8777.906688	0.098749	0.217739	1429.533936
8777.907593	0.101459	0.217739	1521.354126
8777.908490	0.101389	0.217739	1612.300171
8778.884603	0.590643	0.202822	281.146210
8778.885539	0.465187	0.202822	716.561035
8778.886427	0.099338	0.202822	804.773499
8778.887390	0.100122	0.202822	901.191040
8778.888288	0.101012	0.202822	991.899780
8778.889175	0.101898	0.202822	1082.283447
8778.890115	0.099763	0.202822	1176.060791
8778.891016	0.101433	0.202822	1267.452026
8778.891930	0.100741	0.202822	1359.529297
8778.892829	0.101235	0.202822	1450.539917
8778.893783	0.099701	0.202822	1545.654541
8778.894692	0.101561	0.202822	1637.973755
8779.937238	0.697064	0.209565	311.587677
8779.938144	0.478696	0.209565	745.286499
8779.939081	0.098782	0.209565	837.844971
8779.939985	0.099141	0.209565	927.468079
8779.940879	0.101067	0.209565	1017.821899
8779.941765	0.101429	0.209565	1107.688354
8779.942706	0.099122	0.209565	1200.962402
8779.943605	0.099412	0.209565	1290.333496
8779.944509	0.101338	0.209565	1381.942993
8779.945396	0.100638	0.209565	1471.209229
8779.946336	0.099181	0.209565	1564.439331
8779.947243	0.100836	0.209565	1655.897705
8780.917204	0.702473	0.205831	314.005493
8780.918113	0.463345	0.205831	735.185852
8780.919002	0.100602	0.205831	824.620850
8780.919953	0.099265	0.205831	919.021973
8780.920869	0.101115	0.205831	1011.642883
8780.921789	0.101880	0.205831	1105.372314
8780.922675	0.100554	0.205831	1194.463379
8780.923609	0.099635	0.205831	1287.522461
8780.924509	0.100785	0.205831	1378.228882
8780.925403	0.101125	0.205831	1468.635010
8780.926323	0.099910	0.205831	1560.551880
8780.927248	0.100323	0.205831	1653.351074
8781.972949	0.700587	0.201343	309.659515
8781.973879	0.471123	0.201343	747.803955
8781.974780	0.101323	0.201343	839.096191
8781.975711	0.099851	0.201343	932.057556
8781.976614	0.099705	0.201343	1022.090820
8781.977513	0.102030	0.201343	1113.815796
8781.978400	0.101429	0.201343	1203.783691
8781.979341	0.099031	0.201343	1296.971680
8781.980252	0.099921	0.201343	1387.999390
8781.981142	0.100778	0.201343	1477.691406
8781.982062	0.099902	0.201343	1569.601562
8781.982976	0.098661	0.201343	1659.777588
8782.952920	0.686539	0.211986	303.450378
8782.953832	0.474082	0.211986	735.813171
8782.954765	0.101243	0.211986	830.272583
8782.955673	0.100382	0.211986	921.419495
8782.956610	0.099972	0.211986	1015.093201
8782.957516	0.100529	0.211986	1106.172119
8782.958406	0.101913	0.211986	1196.874512
8782.959350	0.099181	0.211986	1290.501343
8782.960255	0.100089	0.211986	1381.082031
8782.961149	0.102147	0.211986	1472.401611
8782.962038	0.101162	0.211986	1562.334717
8782.962970	0.098789	0.211986	1654.406128
8784.005608	0.637833	0.199132	294.041138
8784.006533	0.465608	0.199132	724.728455
8784.007438	0.101499	0.199132	816.585083
8784.008324	0.100898	0.199132	905.981079
8784.009274	0.099199	0.199132	1000.220337
8784.010180	0.101243	0.199132	1091.946167
8784.011076	0.101821	0.199132	1183.177979
8784.012005	0.099939	0.199132	1276.021240
8784.012910	0.098928	0.199132	1365.551270
8784.013806	0.100562	0.199132	1455.654419
8784.014690	0.100745	0.199132	1544.712646
8784.015630	0.098690	0.199132	1637.481445
8784.987602	0.714126	0.218540	315.643677
8784.988497	0.463099	0.218540	730.117615
8784.989446	0.098295	0.218540	823.399292
8784.990355	0.100536	0.218540	914.786377
8784.991249	0.101122	0.218540	1005.189270
8784.992161	0.099972	0.218540	1096.363647
8784.993083	0.099745	0.218540	1188.328369
8784.993984	0.100510	0.218540	1278.888062
8784.994872	0.101862	0.218540	1369.341187
8784.995812	0.099038	0.218540	1462.437012
8784.996716	0.099485	0.218540	1552.371338
8784.997619	0.100990	0.218540	1643.565308
8786.041294	0.722670	0.196868	317.974640
8786.042249	0.433425	0.196868	731.895752
8786.043154	0.099606	0.196868	822.038940
8786.044051	0.100763	0.196868	912.423279
8786.044978	0.099672	0.196868	1004.818848
8786.045892	0.098928	0.196868	1095.239258
8786.046798	0.100063	0.196868	1185.896729
8786.047695	0.100906	0.196868	1276.409180
8786.048646	0.098826	0.196868	1370.392456
8786.049546	0.098708	0.196868	1459.230103
8786.050448	0.100950	0.196868	1550.286743
8786.051336	0.099445	0.196868	1638.593506
8787.022294	0.715031	0.218347	321.763733
8787.023282	0.447506	0.218347	763.899780
8787.024175	0.100587	0.218347	853.724121
8787.025066	0.100935	0.218347	943.657288
8787.025999	0.099089	0.218347	1036.107666
8787.026906	0.101682	0.218347	1128.333374
8787.027830	0.100653	0.218347	1221.336792
8787.028722	0.100441	0.218347	1310.929932
8787.029682	0.099437	0.218347	1406.389648
8787.030581	0.100540	0.218347	1496.774658
8787.031471	0.100781	0.218347	1586.469971
8787.032397	0.099188	0.218347	1678.318237
8788.077015	0.706014	0.201299	314.176392
8788.077909	0.475287	0.201299	739.082825
8788.078862	0.098379	0.201299	832.837952
8788.079762	0.100389	0.201299	923.188416
8788.080656	0.102594	0.201299	1014.907471
8788.081590	0.099401	0.201299	1107.747681
8788.082498	0.098778	0.201299	1197.438232
8788.083396	0.101254	0.201299	1288.364014
8788.084292	0.101257	0.201299	1379.090576
8788.085261	0.098617	0.201299	1474.650391
8788.086160	0.099558	0.201299	1564.153076
8788.087058	0.101290	0.201299	1655.111816
8789.056981	0.694486	0.212425	309.046295
8789.057877	0.478389	0.212425	737.682495
8789.058790	0.099554	0.212425	828.575684
8789.059736	0.099946	0.212425	923.124878
8789.060641	0.100972	0.212425	1014.504272
8789.061536	0.101565	0.212425	1105.404907
8789.062468	0.099324	0.212425	1197.974609
8789.063380	0.100536	0.212425	1289.663330
8789.064304	0.100144	0.212425	1382.196411
8789.065192	0.100756	0.212425	1471.667358
8789.066146	0.099309	0.212425	1566.408203
8789.067041	0.100957	0.212425	1656.764771
8790.112724	0.690209	0.208079	306.452667
8790.113632	0.475192	0.208079	737.926636
8790.114561	0.099547	0.208079	830.405884
8790.115472	0.098679	0.208079	920.302612
8790.116383	0.100085	0.208079	1011.480469
8790.117271	0.101169	0.208079	1101.318970
8790.118213	0.099027	0.208079	1194.602539
8790.119120	0.098888	0.208079	1284.293945
8790.120021	0.101166	0.208079	1375.444336
8790.120909	0.100210	0.208079	1464.430786
8790.121853	0.098855	0.208079	1557.749878
8790.122758	0.100378	0.208079	1648.592285
8791.089664	0.605482	0.207152	296.686249
8791.090566	0.455387	0.207152	707.445312
8791.091523	0.098690	0.207152	801.891846
8791.092426	0.099653	0.207152	891.878784
8791.093320	0.101561	0.207152	982.674561
8791.094215	0.101122	0.207152	1073.178589
8791.095168	0.098892	0.207152	1167.422241
8791.096075	0.100309	0.207152	1258.402344
8791.096975	0.101367	0.207152	1349.632812
8791.097913	0.099316	0.207152	1442.791626
8791.098813	0.098606	0.207152	1531.536987
8791.099715	0.100741	0.207152	1622.405396
8792.148436	0.700726	0.211761	311.122467
8792.149361	0.451450	0.211761	728.713867
8792.150261	0.100444	0.211761	819.113770
8792.151187	0.099474	0.211761	911.226562
8792.152094	0.098947	0.211761	1000.971069
8792.152986	0.101012	0.211761	1091.073730
8792.153875	0.100917	0.211761	1180.788696
8792.154822	0.099067	0.211761	1274.605469
8792.155717	0.099507	0.211761	1363.664062
8792.156615	0.102191	0.211761	1455.431763
8792.157509	0.100269	0.211761	1545.071899
8792.158459	0.099042	0.211761	1639.161621
8793.128403	0.691274	0.204510	304.852020
8793.129331	0.468625	0.204510	739.736450
8793.130230	0.100917	0.204510	830.460571
8793.131168	0.098943	0.204510	923.268982
8793.132069	0.098873	0.204510	1012.353821
8793.132966	0.101093	0.204510	1103.033813
8793.133854	0.101213	0.204510	1192.911255
8793.134784	0.098643	0.204510	1284.648804
8793.135690	0.099437	0.204510	1374.739014
8793.136599	0.101825	0.204510	1467.297852
8793.137495	0.100217	0.204510	1557.092529
8793.138436	0.098837	0.204510	1650.097900
8794.179033	0.700887	0.219004	314.698456
8794.179942	0.470244	0.219004	742.150391
8794.180830	0.101393	0.219004	832.187256
8794.181797	0.098657	0.219004	927.588806
8794.182706	0.100126	0.219004	1018.603088
8794.183602	0.100961	0.219004	1109.063843
8794.184489	0.099126	0.219004	1196.988525
8794.185436	0.099174	0.219004	1290.905884
8794.186330	0.101228	0.219004	1381.403687
8794.187220	0.100704	0.219004	1471.030518
8794.188153	0.099045	0.219004	1563.439941
8794.189063	0.099434	0.219004	1653.924561
8795.168216	0.664142	0.198367	298.199677
8795.169145	0.445986	0.198367	712.520996
8795.170046	0.100166	0.198367	802.770569
8795.170981	0.099082	0.198367	895.412292
8795.171887	0.099045	0.198367	985.147461
8795.172795	0.101034	0.198367	1076.886230
8795.173682	0.100756	0.198367	1166.256470
8795.174632	0.098844	0.198367	1260.158203
8795.175539	0.099287	0.198367	1350.211670
8795.176431	0.100507	0.198367	1439.863525
8795.177353	0.099210	0.198367	1531.335327
8795.178272	0.098760	0.198367	1622.095581
8796.206574	0.720059	0.222714	336.987396
8796.207481	0.477184	0.222714	769.793152
8796.208431	0.099108	0.222714	863.945435
8796.209349	0.100759	0.222714	956.442444
8796.210272	0.101550	0.222714	1050.173340
8796.211163	0.101104	0.222714	1140.256592
8796.212119	0.099521	0.222714	1235.399170
8796.213010	0.100214	0.222714	1324.689453
8796.213900	0.100895	0.222714	1414.485840
8796.214828	0.099642	0.222714	1506.953857
8796.215751	0.101140	0.222714	1600.306152
8796.216655	0.100291	0.222714	1690.968750
8797.211105	0.687001	0.190092	310.524353
8797.212034	0.481194	0.190092	757.553406
8797.212921	0.101495	0.190092	847.579773
8797.213843	0.099642	0.190092	939.450012
8797.214769	0.098683	0.190092	1030.830322
8797.215671	0.100111	0.190092	1121.130493
8797.216571	0.100188	0.190092	1211.299683
8797.217513	0.099108	0.190092	1304.659058
8797.218412	0.099056	0.190092	1393.710815
8797.219313	0.100675	0.190092	1484.419067
8797.220199	0.100510	0.190092	1573.471191
8797.221134	0.098987	0.190092	1666.023804
8798.232023	0.690842	0.226742	309.497345
8798.232924	0.473064	0.226742	735.728027
8798.233855	0.098903	0.226742	827.806335
8798.234751	0.098676	0.226742	916.219604
8798.235642	0.100847	0.226742	1006.074402
8798.236531	0.101957	0.226742	1096.713989
8798.237487	0.099104	0.226742	1191.457397
8798.238383	0.099551	0.226742	1280.654907
8798.239287	0.101477	0.226742	1372.390137
8798.240178	0.100345	0.226742	1461.797974
8798.241136	0.099104	0.226742	1556.739624
8798.242039	0.100085	0.226742	1647.116821
8799.256017	0.700334	0.188811	312.349182
8799.256911	0.469640	0.188811	732.207275
8799.257872	0.098635	0.188811	826.995728
8799.258777	0.101038	0.188811	918.434753
8799.259668	0.101854	0.188811	1009.186890
8799.260561	0.100188	0.188811	1098.654785
8799.261509	0.099034	0.188811	1192.539429
8799.262410	0.100858	0.188811	1283.412598
8799.263302	0.100616	0.188811	1373.162476
8799.264228	0.099309	0.188811	1465.122681
8799.265138	0.099316	0.188811	1555.500610
8799.266049	0.101195	0.188811	1647.689331
8800.259531	0.728053	0.222150	317.431091
8800.260478	0.457551	0.222150	750.732178
8800.261394	0.098397	0.222150	840.864014
8800.262299	0.101935	0.222150	933.114990
8800.263187	0.100485	0.222150	1022.345337
8800.264132	0.098829	0.222150	1115.739014
8800.265039	0.099657	0.222150	1206.127930
8800.265943	0.102111	0.222150	1298.435913
8800.266861	0.099664	0.222150	1389.927734
8800.267789	0.098448	0.222150	1481.287964
8800.268695	0.099917	0.222150	1571.812744
8800.269590	0.101415	0.222150	1662.578979
8801.296847	0.720212	0.197843	314.732819
8801.297743	0.459668	0.197843	726.595337
8801.298708	0.100404	0.197843	823.485229
8801.299633	0.100884	0.197843	916.802734
8801.300525	0.101001	0.197843	1006.895630
8801.301444	0.100140	0.197843	1098.924683
8801.302370	0.101327	0.197843	1192.753418
8801.303280	0.101129	0.197843	1284.781006
8801.304178	0.100994	0.197843	1375.473267
8801.305116	0.101510	0.197843	1470.689697
8801.306030	0.100741	0.197843	1562.766968
8801.306946	0.101902	0.197843	1656.109009
8802.295260	0.672704	0.218158	306.080261
8802.296162	0.465872	0.218158	726.296387
8802.297102	0.098071	0.218158	818.483398
8802.298019	0.099012	0.218158	909.277832
8802.298926	0.101396	0.218158	1001.244446
8802.299812	0.100126	0.218158	1089.955811
8802.300748	0.098577	0.218158	1182.223511
8802.301658	0.100657	0.218158	1273.821167
8802.302549	0.100734	0.218158	1363.574829
8802.303490	0.099679	0.218158	1457.372681
8802.304384	0.098745	0.218158	1545.650757
8802.305285	0.101030	0.218158	1636.679077
8803.326408	0.705557	0.215825	306.211578
8803.327399	0.454142	0.215825	756.266113
8803.328308	0.099207	0.215825	846.444824
8803.329209	0.100975	0.215825	937.423584
8803.330154	0.099741	0.215825	1031.679077
8803.331053	0.098635	0.215825	1120.352173
8803.331953	0.100767	0.215825	1211.042114
8803.332838	0.100895	0.215825	1300.333984
8803.333766	0.098657	0.215825	1391.887939
8803.334670	0.099734	0.215825	1482.047363
8803.335575	0.100964	0.215825	1573.420166
8803.336480	0.099829	0.215825	1663.765503
8804.337117	0.677245	0.203285	304.082947
8804.338034	0.466216	0.203285	731.602844
8804.338929	0.101499	0.203285	822.444458
8804.339861	0.100115	0.203285	915.751404
8804.340768	0.099327	0.203285	1005.841370
8804.341677	0.100906	0.203285	1097.564697
8804.342574	0.101697	0.203285	1188.786743
8804.343510	0.099071	0.203285	1281.517212
8804.344409	0.099261	0.203285	1370.753296
8804.345307	0.101320	0.203285	1461.738281
8804.346192	0.100239	0.203285	1550.450073
8804.347130	0.098569	0.203285	1642.908081
8805.350908	0.577866	0.217404	283.154449
8805.351843	0.412218	0.217404	668.578308
8805.352775	0.100521	0.217404	762.264099
8805.353662	0.100118	0.217404	851.069092
8805.354627	0.099576	0.217404	947.160339
8805.355523	0.100477	0.217404	1037.187988
8805.356414	0.100360	0.217404	1126.608887
8805.357335	0.099624	0.217404	1218.362549
8805.358257	0.100232	0.217404	1310.776367
8805.359162	0.100525	0.217404	1401.751465
8805.360052	0.100408	0.217404	1491.114380
8805.360991	0.098983	0.217404	1584.059570
8806.386123	0.705736	0.189722	311.229584
8806.387107	0.463766	0.189722	767.575195
8806.388023	0.101202	0.189722	860.276611
8806.388917	0.102393	0.189722	951.815552
8806.389858	0.099664	0.189722	1045.599609
8806.390768	0.099452	0.189722	1136.100830
8806.391673	0.101210	0.189722	1227.695679
8806.392562	0.100811	0.189722	1317.316284
8806.393501	0.098947	0.189722	1410.227051
8806.394400	0.099500	0.189722	1499.677124
8806.395299	0.101536	0.189722	1590.957642
8806.396207	0.099855	0.189722	1681.625732
8807.374333	0.730466	0.226948	355.737091
8807.375251	0.462554	0.226948	780.361389
8807.376174	0.100818	0.226948	873.416260
8807.377061	0.100562	0.226948	962.614319
8807.378026	0.101602	0.226948	1060.659790
8807.378920	0.100408	0.226948	1150.424316
8807.379847	0.100404	0.226948	1243.498901
8807.380735	0.100459	0.226948	1332.706421
8807.381684	0.100862	0.226948	1428.424316
8807.382606	0.101096	0.226948	1521.635010
8807.383500	0.099807	0.226948	1610.862549
8807.384458	0.100078	0.226948	1706.737427
8808.427983	0.709028	0.201887	313.390503
8808.428881	0.466637	0.201887	732.430481
8808.429831	0.098262	0.201887	825.779114
8808.430743	0.099181	0.201887	916.232117
8808.431653	0.101744	0.201887	1008.819519
8808.432543	0.100063	0.201887	1097.875977
8808.433494	0.098738	0.201887	1191.775635
8808.434400	0.100642	0.201887	1282.957397
8808.435288	0.101591	0.201887	1373.169800
8808.436222	0.100049	0.201887	1466.615356
8808.437123	0.098921	0.201887	1555.743042
8808.438032	0.101536	0.201887	1648.038940
8809.404872	0.718715	0.214532	312.640839
8809.405766	0.479432	0.214532	741.253357
8809.406732	0.098676	0.214532	836.573914
8809.407638	0.100763	0.214532	927.865112
8809.408528	0.101473	0.214532	1018.176392
8809.409480	0.099525	0.214532	1112.924316
8809.410379	0.098840	0.214532	1201.781738
8809.411272	0.101924	0.214532	1292.799683
8809.412164	0.100452	0.214532	1382.402588
8809.413099	0.098760	0.214532	1474.742920
8809.414003	0.098859	0.214532	1564.111084
8809.414904	0.100466	0.214532	1654.631226
8810.463700	0.691611	0.216208	305.692230
8810.464601	0.472939	0.216208	731.810669
8810.465487	0.100045	0.216208	820.450684
8810.466443	0.098719	0.216208	914.826538
8810.467351	0.100067	0.216208	1005.687500
8810.468246	0.102235	0.216208	1097.187866
8810.469166	0.100001	0.216208	1189.188965
8810.470080	0.098888	0.216208	1279.572510
8810.470993	0.100067	0.216208	1370.933838
8810.471887	0.100803	0.216208	1461.051880
8810.472817	0.099159	0.216208	1553.269653
8810.473721	0.098990	0.216208	1642.757080
8811.443667	0.705242	0.207930	311.011566
8811.444568	0.477839	0.207930	741.544800
8811.445456	0.099899	0.207930	830.254822
8811.446434	0.098807	0.207930	926.888428
8811.447346	0.099602	0.207930	1017.725525
8811.448250	0.101136	0.207930	1109.152954
8811.449186	0.099474	0.207930	1202.260498
8811.450089	0.098610	0.207930	1291.304932
8811.450979	0.100668	0.207930	1380.899170
8811.451864	0.100627	0.207930	1469.954468
8811.452802	0.098914	0.207930	1562.735352
8811.453708	0.099441	0.207930	1652.828857
8812.491210	0.714115	0.227314	312.782379
8812.492105	0.477678	0.227314	740.304443
8812.493066	0.098390	0.227314	834.857117
8812.493979	0.100272	0.227314	926.405640
8812.494876	0.100972	0.227314	1016.977234
8812.495811	0.099397	0.227314	1109.913452
8812.496719	0.098547	0.227314	1199.394409
8812.497612	0.100898	0.227314	1289.496704
8812.498500	0.101049	0.227314	1379.227783
8812.499445	0.098580	0.227314	1472.386230
8812.500341	0.098972	0.227314	1561.065308
8812.501237	0.101737	0.227314	1652.221680
8813.484516	0.686997	0.201908	309.835663
8813.485426	0.483164	0.201908	749.514954
8813.486324	0.100060	0.201908	839.368652
8813.487282	0.100312	0.201908	935.468018
8813.488188	0.101290	0.201908	1027.237061
8813.489112	0.100752	0.201908	1120.331909
8813.490005	0.100558	0.201908	1210.130127
8813.490953	0.100931	0.201908	1305.813110
8813.491878	0.100807	0.201908	1399.059448
8813.492767	0.100752	0.201908	1488.627930
8813.493712	0.099792	0.201908	1582.931885
8813.494607	0.100964	0.201908	1673.294922
8814.516693	0.691055	0.232116	306.828278
8814.517600	0.474595	0.232116	737.285645
8814.518492	0.100752	0.232116	827.156372
8814.519453	0.098906	0.232116	922.205261
8814.520362	0.100682	0.232116	1013.725525
8814.521259	0.101935	0.232116	1105.161011
8814.522194	0.099591	0.232116	1198.278687
8814.523098	0.098936	0.232116	1287.716431
8814.524012	0.100719	0.232116	1379.773560
8814.524901	0.101459	0.232116	1469.970337
8814.525833	0.098910	0.232116	1562.154419
8814.526734	0.098917	0.232116	1651.278809
8815.527393	0.706761	0.196381	318.042664
8815.528296	0.476755	0.196381	748.552734
8815.529234	0.099119	0.196381	841.526001
8815.530137	0.099437	0.196381	931.317871
8815.531039	0.101788	0.196381	1023.130920
8815.531929	0.101865	0.196381	1113.791016
8815.532864	0.098606	0.196381	1205.987549
8815.533782	0.099792	0.196381	1297.597046
8815.534677	0.101224	0.196381	1388.192871
8815.535564	0.100613	0.196381	1477.436401
8815.536517	0.098976	0.196381	1571.760376
8815.537424	0.100701	0.196381	1663.095947
8816.546257	0.704879	0.232865	310.146820
8816.547165	0.473818	0.232865	740.373901
8816.548053	0.100675	0.232865	829.773315
8816.548999	0.098793	0.232865	923.231201
8816.549914	0.099261	0.232865	1014.055420
8816.550816	0.102206	0.232865	1106.245117
8816.551705	0.100411	0.232865	1195.510864
8816.552653	0.099012	0.232865	1289.374634
8816.553561	0.100272	0.232865	1380.421753
8816.554454	0.101572	0.232865	1471.125732
8816.555391	0.099800	0.232865	1564.638184
8816.556290	0.098793	0.232865	1653.452881
8817.568200	0.729082	0.192614	318.608826
8817.569174	0.470013	0.192614	776.401855
8817.570081	0.100554	0.192614	867.604492
8817.570974	0.101331	0.192614	958.092651
8817.571902	0.100397	0.192614	1051.260864
8817.572810	0.099302	0.192614	1141.426880
8817.573712	0.100774	0.192614	1232.324951
8817.574603	0.102133	0.192614	1323.325073
8817.575530	0.098979	0.192614	1415.079102
8817.576439	0.099554	0.192614	1505.574097
8817.577341	0.101503	0.192614	1597.129517
8817.578228	0.100441	0.192614	1686.220337
8818.578919	0.659095	0.229087	301.206635
8818.579851	0.466165	0.229087	735.671997
8818.580742	0.100693	0.229087	825.389771
8818.581652	0.099723	0.229087	916.137634
8818.582597	0.098793	0.229087	1009.496765
8818.583505	0.100397	0.229087	1100.656982
8818.584403	0.101411	0.229087	1191.724121
8818.585328	0.099426	0.229087	1283.693359
8818.586230	0.099045	0.229087	1373.032349
8818.587130	0.100994	0.229087	1463.926636
8818.588019	0.101642	0.229087	1554.286255
8818.588962	0.098925	0.229087	1647.572144
8819.606988	0.719238	0.196441	314.307129
8819.607885	0.461847	0.196441	728.583801
8819.608841	0.098672	0.196441	822.914124
8819.609749	0.100009	0.196441	913.721863
8819.610647	0.101096	0.196441	1004.506226
8819.611548	0.101726	0.196441	1096.161377
8819.612483	0.098793	0.196441	1188.532593
8819.613389	0.100697	0.196441	1279.764038
8819.614279	0.100529	0.196441	1369.234497
8819.615215	0.099327	0.196441	1462.204956
8819.616106	0.098694	0.196441	1550.141113
8819.617010	0.100236	0.196441	1640.754150
8820.614607	0.714137	0.230488	317.790955
8820.615500	0.473833	0.230488	740.923828
8820.616469	0.099056	0.230488	836.909485
8820.617365	0.100364	0.230488	926.835449
8820.618257	0.102184	0.230488	1017.983459
8820.619190	0.099752	0.230488	1111.052246
8820.620099	0.100349	0.230488	1202.269653
8820.621019	0.101089	0.230488	1295.271362
8820.621915	0.102330	0.230488	1386.959351
8820.622871	0.099426	0.230488	1482.010864
8820.623778	0.101704	0.230488	1574.256470
8820.624700	0.101616	0.230488	1667.946655
8821.644812	0.722391	0.203676	364.085205
8821.645722	0.452091	0.203676	775.488037
8821.646625	0.100034	0.203676	865.818909
8821.647514	0.100778	0.203676	955.410156
8821.648449	0.098895	0.203676	1047.877197
8821.649352	0.099038	0.203676	1137.308594
8821.650256	0.100748	0.203676	1228.385010
8821.651144	0.099943	0.203676	1317.134033
8821.652089	0.098848	0.203676	1410.545044
8821.652997	0.099745	0.203676	1501.113403
8821.653891	0.101418	0.203676	1591.781494
8821.654831	0.100781	0.203676	1686.515869
8822.647257	0.686906	0.225590	307.733673
8822.648158	0.471742	0.225590	732.773193
8822.649110	0.098734	0.225590	826.768066
8822.650011	0.101367	0.225590	918.099915
8822.650928	0.101770	0.225590	1011.423035
8822.651816	0.101426	0.225590	1101.489136
8822.652755	0.099774	0.225590	1195.177124
8822.653665	0.100583	0.225590	1286.708130
8822.654560	0.101506	0.225590	1377.556274
8822.655477	0.100148	0.225590	1469.391724
8822.656405	0.100525	0.225590	1562.678833
8822.657304	0.101213	0.225590	1653.669678
8823.679448	0.700657	0.198640	315.996185
8823.680349	0.470680	0.198640	740.078796
8823.681282	0.099086	0.198640	832.525757
8823.682186	0.098793	0.198640	921.834351
8823.683087	0.100444	0.198640	1012.334717
8823.683971	0.101616	0.198640	1102.163452
8823.684907	0.098994	0.198640	1194.822021
8823.685814	0.099591	0.198640	1285.151123
8823.686718	0.101968	0.198640	1377.329956
8823.687607	0.100800	0.198640	1466.940796
8823.688559	0.099130	0.198640	1561.312256
8823.689467	0.100375	0.198640	1652.452515
8824.685063	0.702198	0.227362	352.503632
8824.685997	0.463923	0.227362	785.807983
8824.686896	0.100935	0.227362	876.548584
8824.687784	0.101462	0.227362	966.647217
8824.688732	0.099020	0.227362	1060.517944
8824.689640	0.100642	0.227362	1151.901001
8824.690536	0.102034	0.227362	1243.323242
8824.691426	0.099661	0.227362	1332.021240
8824.692372	0.098932	0.227362	1425.610840
8824.693271	0.102466	0.227362	1517.727661
8824.694161	0.100712	0.227362	1607.361084
8824.695097	0.098774	0.227362	1699.813965
8825.713101	0.733249	0.199064	321.896515
8825.713997	0.457518	0.199064	731.832886
8825.714960	0.098236	0.199064	826.434204
8825.715871	0.099924	0.199064	917.465271
8825.716759	0.101261	0.199064	1007.385010
8825.717691	0.100181	0.199064	1100.753418
8825.718607	0.099097	0.199064	1191.526001
8825.719514	0.100825	0.199064	1282.974487
8825.720413	0.101949	0.199064	1374.627075
8825.721349	0.099027	0.199064	1467.316406
8825.722256	0.098917	0.199064	1557.034302
8825.723155	0.101210	0.199064	1648.021851
8826.719692	0.719330	0.230907	314.347137
8826.720590	0.476389	0.230907	742.144592
8826.721552	0.098379	0.230907	836.785095
8826.722455	0.099939	0.230907	927.029968
8826.723350	0.101451	0.230907	1017.828979
8826.724275	0.099869	0.230907	1110.208130
8826.725174	0.098752	0.230907	1198.986572
8826.726086	0.101378	0.230907	1291.443481
8826.726975	0.100203	0.230907	1380.523682
8826.727911	0.098452	0.230907	1472.674927
8826.728813	0.098899	0.230907	1561.881714
8826.729714	0.101224	0.230907	1653.084839
8827.743696	0.714749	0.202584	316.633606
8827.744689	0.408757	0.202584	722.529663
8827.745600	0.099067	0.202584	812.780029
8827.746497	0.101268	0.202584	903.617676
8827.747407	0.100009	0.202584	994.625427
8827.748327	0.098796	0.202584	1085.518066
8827.749239	0.099979	0.202584	1176.699097
8827.750134	0.101473	0.202584	1267.517822
8827.751065	0.099152	0.202584	1359.828003
8827.751976	0.098811	0.202584	1449.844849
8827.752874	0.101642	0.202584	1541.119263
8827.753760	0.100532	0.202584	1630.190796
8828.755405	0.706516	0.236744	312.280151
8828.756314	0.471581	0.236744	740.947083
8828.757201	0.099961	0.236744	829.612427
8828.758163	0.098866	0.236744	924.721497
8828.759067	0.100679	0.236744	1015.735046
8828.759962	0.101188	0.236744	1106.298096
8828.760903	0.099686	0.236744	1200.102905
8828.761807	0.098481	0.236744	1289.130127
8828.762700	0.102177	0.236744	1380.373779
8828.763590	0.100558	0.236744	1469.870239
8828.764534	0.098569	0.236744	1562.919678
8828.765433	0.099489	0.236744	1652.359863
8829.776359	0.715214	0.203692	326.137421
8829.777266	0.451787	0.203692	735.908325
8829.778152	0.100840	0.203692	825.252441
8829.779122	0.100708	0.203692	922.939209
8829.780017	0.100210	0.203692	1012.627136
8829.780910	0.101799	0.203692	1103.533936
8829.781822	0.101012	0.203692	1195.656860
8829.782755	0.101254	0.203692	1290.126465
8829.783670	0.100898	0.203692	1382.448486
8829.784556	0.100664	0.203692	1471.636841
8829.785503	0.100682	0.203692	1566.983032
8829.786400	0.100474	0.203692	1657.107910
8830.795223	0.686689	0.233634	307.636871
8830.796131	0.476741	0.233634	740.517456
8830.797015	0.099661	0.233634	828.617432
8830.797979	0.098877	0.233634	923.934814
8830.798886	0.099935	0.233634	1014.576111
8830.799787	0.101349	0.233634	1105.891479
8830.800720	0.099174	0.233634	1198.420410
8830.801622	0.098862	0.233634	1287.594238
8830.802515	0.101052	0.233634	1377.833862
8830.803404	0.101060	0.233634	1467.675781
8830.804338	0.098866	0.233634	1560.016602
8830.805237	0.099478	0.233634	1649.446899
8831.805920	0.679402	0.204337	305.730835
8831.806824	0.479161	0.204337	738.892700
8831.807709	0.100455	0.204337	827.795654
8831.808673	0.100144	0.204337	924.334473
8831.809567	0.100997	0.204337	1014.626099
8831.810458	0.102063	0.204337	1105.564209
8831.811397	0.100441	0.204337	1199.878052
8831.812300	0.100334	0.204337	1290.480103
8831.813216	0.100459	0.204337	1382.500488
8831.814113	0.100895	0.204337	1473.003052
8831.815061	0.099086	0.204337	1566.936279
8831.815968	0.100811	0.204337	1658.371460
8832.836037	0.733436	0.230774	318.311340
8832.836985	0.464766	0.230774	758.909180
8832.837906	0.098635	0.230774	849.752258
8832.838816	0.101832	0.230774	942.419617
8832.839718	0.100514	0.230774	1033.083130
8832.840652	0.098661	0.230774	1125.232422
8832.841552	0.098818	0.230774	1214.168945
8832.842456	0.101865	0.230774	1306.255127
8832.843344	0.100166	0.230774	1395.202515
8832.844282	0.098287	0.230774	1487.395996
8832.845190	0.099507	0.230774	1577.748169
8832.846081	0.100298	0.230774	1667.113525
8833.834491	0.576680	0.205767	276.229584
8833.835418	0.462480	0.205767	704.948975
8833.836323	0.100887	0.205767	796.252136
8833.837214	0.100151	0.205767	885.487000
8833.838155	0.099463	0.205767	979.081604
8833.839048	0.101085	0.205767	1069.350708
8833.839942	0.100741	0.205767	1159.413086
8833.840885	0.099393	0.205767	1253.140991
8833.841799	0.099961	0.205767	1344.505249
8833.842701	0.100316	0.205767	1434.990479
8833.843587	0.100767	0.205767	1524.269653
8833.844525	0.098643	0.205767	1616.796387
8834.877915	0.676798	0.224071	301.175171
8834.878815	0.466586	0.224071	721.102295
8834.879705	0.100082	0.224071	810.175110
8834.880655	0.098873	0.224071	904.104736
8834.881554	0.099979	0.224071	993.986084
8834.882453	0.101616	0.224071	1085.339111
8834.883354	0.100236	0.224071	1175.651367
8834.884294	0.099027	0.224071	1268.736816
8834.885204	0.100891	0.224071	1360.547729
8834.886104	0.101744	0.224071	1452.117676
8834.887050	0.099185	0.224071	1545.946289
8834.887948	0.098969	0.224071	1634.820068
8835.865060	0.677999	0.212204	305.777679
8835.865980	0.470922	0.212204	739.025513
8835.866881	0.100675	0.212204	829.733704
8835.867829	0.100005	0.212204	924.538330
8835.868744	0.100873	0.212204	1016.836914
8835.869661	0.101737	0.212204	1110.129761
8835.870554	0.101056	0.212204	1200.372681
8835.871490	0.100020	0.212204	1293.990967
8835.872394	0.100789	0.212204	1385.103882
8835.873285	0.102041	0.212204	1476.022461
8835.874204	0.100272	0.212204	1568.172607
8835.875126	0.100023	0.212204	1660.394043
8836.917717	0.686873	0.218609	305.658295
8836.918632	0.462305	0.218609	728.667114
8836.919521	0.099994	0.218609	817.561707
8836.920479	0.099159	0.218609	912.555969
8836.921386	0.100206	0.218609	1003.443115
8836.922279	0.101917	0.218609	1094.454590
8836.923188	0.100316	0.218609	1185.641968
8836.924098	0.098657	0.218609	1275.420044
8836.924998	0.100375	0.218609	1365.757324
8836.925894	0.101646	0.218609	1456.831665
8836.926831	0.099111	0.218609	1549.698975
8836.927733	0.098551	0.218609	1638.592041
8837.897697	0.636984	0.219749	294.286438
8837.898607	0.464377	0.219749	716.869934
8837.899495	0.099642	0.219749	805.352295
8837.900446	0.099045	0.219749	899.544495
8837.901355	0.100382	0.219749	990.791809
8837.902249	0.101891	0.219749	1081.882202
8837.903179	0.100250	0.219749	1175.114990
8837.904081	0.098859	0.219749	1264.285522
8837.904992	0.101202	0.219749	1356.480957
8837.905890	0.100649	0.219749	1446.864136
8837.906813	0.098756	0.219749	1538.015991
8837.907721	0.098624	0.219749	1627.566772
8838.951402	0.632263	0.208961	299.060486
8838.952309	0.463685	0.208961	719.623047
8838.953258	0.098979	0.208961	813.554565
8838.954167	0.099016	0.208961	903.560181
8838.955076	0.101455	0.208961	995.782837
8838.955963	0.100137	0.208961	1084.604126
8838.956918	0.098734	0.208961	1178.895264
8838.957826	0.100162	0.208961	1269.842651
8838.958719	0.100726	0.208961	1359.791260
8838.959635	0.099554	0.208961	1450.983154
8838.960545	0.098514	0.208961	1540.631226
8838.961455	0.099661	0.208961	1631.322388
8839.936519	0.662703	0.229771	328.700500
8839.937445	0.463154	0.229771	757.581421
8839.938346	0.100880	0.229771	848.474426
8839.939241	0.100382	0.229771	938.316406
8839.940191	0.098774	0.229771	1032.152100
8839.941096	0.100327	0.229771	1122.948120
8839.941989	0.100836	0.229771	1212.994873
8839.942910	0.099884	0.229771	1304.988037
8839.943820	0.098610	0.229771	1394.722778
8839.944720	0.100463	0.229771	1485.139160
8839.945613	0.101536	0.229771	1575.810547
8839.946541	0.098939	0.229771	1667.626099
8840.978886	0.728291	0.204546	316.078278
8840.979859	0.458752	0.204546	762.444458
8840.980772	0.098895	0.204546	852.735840
8840.981672	0.103055	0.204546	945.485718
8840.982557	0.100844	0.204546	1034.732178
8840.983518	0.099181	0.204546	1130.045044
8840.984430	0.100939	0.204546	1222.101196
8840.985326	0.100822	0.204546	1312.437256
8840.986268	0.099727	0.204546	1406.379639
8840.987167	0.098793	0.204546	1495.194336
8840.988061	0.100598	0.204546	1585.129028
8840.988955	0.101294	0.204546	1675.685791
8841.978319	0.704590	0.227677	310.019531
8841.979213	0.480677	0.227677	739.745239
8841.980156	0.098437	0.227677	832.571777
8841.981077	0.100825	0.227677	925.431763
8841.981973	0.102001	0.227677	1016.824402
8841.982917	0.099767	0.227677	1111.004272
8841.983822	0.098716	0.227677	1200.342041
8841.984727	0.102162	0.227677	1292.798584
8841.985617	0.101331	0.227677	1382.982788
8841.986561	0.098705	0.227677	1476.160156
8841.987465	0.099360	0.227677	1565.981934
8841.988365	0.100642	0.227677	1656.559814
8843.004375	0.672865	0.212160	304.134979
8843.005283	0.474759	0.212160	735.216553
8843.006174	0.100001	0.212160	824.317627
8843.007141	0.099097	0.212160	920.144104
8843.008046	0.100822	0.212160	1011.387573
8843.008937	0.101693	0.212160	1101.996094
8843.009878	0.099635	0.212160	1195.752686
8843.010786	0.100239	0.212160	1286.769897
8843.011680	0.101539	0.212160	1377.546021
8843.012567	0.101646	0.212160	1467.705566
8843.013504	0.098903	0.212160	1560.377319
8843.014418	0.100444	0.212160	1652.183472
8844.023262	0.664896	0.220011	297.208618
8844.024195	0.458525	0.220011	725.012817
8844.025090	0.100917	0.220011	815.333313
8844.026040	0.099430	0.220011	909.791748
8844.026944	0.099229	0.220011	999.494324
8844.027840	0.101532	0.220011	1090.467041
8844.028732	0.101700	0.220011	1181.183838
8844.029657	0.098961	0.220011	1272.722900
8844.030558	0.099946	0.220011	1362.774536
8844.031460	0.100763	0.220011	1453.662720
8844.032347	0.100276	0.220011	1542.607422
8844.033291	0.098859	0.220011	1635.929932
8845.030867	0.686550	0.220434	306.888000
8845.031776	0.479008	0.220434	742.305908
8845.032667	0.099664	0.220434	831.106812
8845.033631	0.099470	0.220434	926.996094
8845.034536	0.102352	0.220434	1019.624939
8845.035425	0.101459	0.220434	1109.821777
8845.036351	0.099503	0.220434	1201.961670
8845.037261	0.099390	0.220434	1292.406250
8845.038156	0.101356	0.220434	1383.119995
8845.039043	0.100444	0.220434	1472.214111
8845.039988	0.098595	0.220434	1565.386353
8845.040903	0.100518	0.220434	1657.359985
8846.064083	0.689557	0.214089	307.542389
8846.064984	0.478634	0.214089	738.791626
8846.065937	0.098665	0.214089	832.818970
8846.066844	0.099382	0.214089	922.958740
8846.067739	0.100503	0.214089	1012.908875
8846.068625	0.100844	0.214089	1102.256226
8846.069572	0.098774	0.214089	1195.795654
8846.070472	0.100349	0.214089	1286.109863
8846.071366	0.101268	0.214089	1376.643799
8846.072289	0.099569	0.214089	1468.546021
8846.073206	0.098599	0.214089	1558.960937
8846.074117	0.100031	0.214089	1650.088745
8847.065548	0.713994	0.225574	312.729431
8847.066503	0.387477	0.225574	682.769775
8847.067411	0.099745	0.225574	773.338135
8847.068342	0.100573	0.225574	866.971130
8847.069254	0.099972	0.225574	958.145508
8847.070183	0.098906	0.225574	1050.029419
8847.071090	0.100195	0.225574	1140.906616
8847.072016	0.101627	0.225574	1235.013428
8847.072904	0.100038	0.225574	1323.847046
8847.073848	0.099785	0.225574	1418.044189
8847.074742	0.099943	0.225574	1507.392944
8847.075628	0.101276	0.225574	1597.123169
8848.098816	0.715250	0.206395	351.903137
8848.099745	0.466553	0.206395	785.330688
8848.100640	0.100730	0.206395	875.484009
8848.101527	0.101840	0.206395	965.815735
8848.102474	0.098928	0.206395	1059.500732
8848.103373	0.099126	0.206395	1148.614990
8848.104268	0.100920	0.206395	1238.938721
8848.105153	0.100851	0.206395	1328.191650
8848.106098	0.098690	0.206395	1421.453857
8848.106994	0.099902	0.206395	1510.966309
8848.107889	0.101239	0.206395	1601.575195
8848.108826	0.099653	0.206395	1694.950317
8849.102281	0.728232	0.234283	318.965820
8849.103186	0.472028	0.234283	746.150757
8849.104151	0.100298	0.234283	842.938171
8849.105076	0.100770	0.234283	936.150635
8849.105971	0.100638	0.234283	1026.222046
8849.106929	0.100258	0.234283	1122.268799
8849.107836	0.100715	0.234283	1213.617554
8849.108756	0.101060	0.234283	1306.592407
8849.109645	0.101140	0.234283	1396.505981
8849.110600	0.101217	0.234283	1493.168213
8849.111519	0.101056	0.234283	1586.038574
8849.112407	0.101796	0.234283	1676.433105
8850.128329	0.706018	0.201650	309.941925
8850.129301	0.468307	0.201650	765.136230
8850.130213	0.100291	0.201650	856.601196
8850.131115	0.100367	0.201650	947.132629
8850.132053	0.099968	0.201650	1040.902832
8850.132962	0.099115	0.201650	1130.998413
8850.133863	0.101305	0.201650	1222.274170
8850.134751	0.101243	0.201650	1312.177612
8850.135698	0.098859	0.201650	1405.796753
8850.136600	0.099540	0.201650	1495.581665
8850.137498	0.101536	0.201650	1586.760620
8850.138387	0.099503	0.201650	1675.218994
8851.141068	0.704583	0.231987	308.607147
8851.142025	0.386920	0.231987	678.889771
8851.142926	0.098383	0.231987	767.532471
8851.143819	0.101957	0.231987	858.579895
8851.144705	0.101554	0.231987	948.556702
8851.145640	0.099210	0.231987	1041.318237
8851.146538	0.099972	0.231987	1131.093018
8851.147441	0.100935	0.231987	1222.237427
8851.148330	0.101433	0.231987	1312.411499
8851.149280	0.098903	0.231987	1406.368896
8851.150181	0.100752	0.231987	1497.146362
8851.151079	0.101041	0.231987	1587.881348
8852.157897	0.728306	0.204204	318.997894
8852.158861	0.467999	0.204204	770.149170
8852.159778	0.098917	0.204204	860.856262
8852.160683	0.101375	0.204204	952.600220
8852.161581	0.100422	0.204204	1042.779541
8852.162522	0.099133	0.204204	1136.063965
8852.163430	0.101008	0.204204	1227.779541
8852.164330	0.101653	0.204204	1319.267090
8852.165279	0.099269	0.204204	1413.473145
8852.166173	0.099064	0.204204	1502.036133
8852.167073	0.101917	0.204204	1593.760986
8852.167960	0.101803	0.204204	1684.060181
8853.179857	0.690802	0.233441	308.788513
8853.180756	0.483380	0.233441	743.347229
8853.181704	0.099309	0.233441	837.492249
8853.182618	0.098906	0.233441	927.892578
8853.183513	0.101770	0.233441	1018.976746
8853.184402	0.101254	0.233441	1108.991211
8853.185354	0.098687	0.233441	1202.940796
8853.186249	0.098884	0.233441	1291.442261
8853.187154	0.100082	0.233441	1382.016235
8853.188046	0.100170	0.233441	1471.367554
8853.189011	0.098672	0.233441	1566.585937
8853.189918	0.099580	0.233441	1656.905029
8854.187468	0.718693	0.206552	312.631317
8854.188408	0.440735	0.206552	726.922119
8854.189320	0.098394	0.206552	816.657043
8854.190232	0.101993	0.206552	909.675049
8854.191124	0.100638	0.206552	999.444519
8854.192082	0.099056	0.206552	1094.340576
8854.192989	0.099913	0.206552	1184.961914
8854.193889	0.101558	0.206552	1276.363770
8854.194808	0.100177	0.206552	1368.426392
8854.195725	0.099012	0.206552	1459.220825
8854.196631	0.102499	0.206552	1552.084717
8854.197518	0.102257	0.206552	1642.786743
8855.219671	0.691443	0.230420	307.692078
8855.220578	0.478385	0.230420	741.587280
8855.221515	0.098965	0.230420	834.317322
8855.222430	0.098606	0.230420	924.541748
8855.223336	0.100774	0.230420	1015.842896
8855.224223	0.100730	0.230420	1105.190430
8855.225171	0.098826	0.230420	1198.877197
8855.226071	0.099243	0.230420	1288.196045
8855.226971	0.102100	0.230420	1380.085693
8855.227857	0.100364	0.230420	1469.008057
8855.228802	0.098972	0.230420	1562.536743
8855.229708	0.099752	0.230420	1652.912231
8856.220117	0.720520	0.205940	324.954529
8856.221013	0.481494	0.205940	756.373291
8856.221956	0.098947	0.205940	849.679871
8856.222871	0.099745	0.205940	940.946411
8856.223777	0.102220	0.205940	1033.558105
8856.224668	0.102491	0.205940	1124.877930
8856.225627	0.098888	0.205940	1219.711426
8856.226525	0.100840	0.205940	1310.265625
8856.227450	0.101942	0.205940	1404.562134
8856.228343	0.100302	0.205940	1494.131348
8856.229279	0.099327	0.205940	1587.101807
8856.230177	0.100946	0.205940	1677.751343
8857.256411	0.667137	0.228527	299.544708
8857.257318	0.480861	0.228527	735.685303
8857.258256	0.098467	0.228527	828.047180
8857.259166	0.099419	0.228527	918.518433
8857.260067	0.101100	0.228527	1009.609375
8857.260955	0.100360	0.228527	1098.729126
8857.261894	0.099049	0.228527	1191.736206
8857.262804	0.100085	0.228527	1282.813965
8857.263694	0.102773	0.228527	1374.282349
8857.264636	0.099093	0.228527	1467.627930
8857.265537	0.098701	0.228527	1556.557739
8857.266429	0.100627	0.228527	1646.317383
8858.253771	0.718927	0.203188	313.452179
8858.254667	0.482878	0.203188	746.111206
8858.255640	0.098698	0.203188	842.143860
8858.256536	0.100931	0.203188	932.578369
8858.257429	0.101437	0.203188	1023.161377
8858.258356	0.099814	0.203188	1115.689331
8858.259271	0.099620	0.203188	1206.841919
8858.260175	0.102198	0.203188	1299.229370
8858.261063	0.101411	0.203188	1389.282471
8858.262004	0.098906	0.203188	1482.353271
8858.262911	0.100507	0.203188	1573.512695
8858.263808	0.100935	0.203188	1664.051392
8859.292124	0.686887	0.229050	308.412354
8859.293027	0.471270	0.229050	733.968750
8859.293913	0.100426	0.229050	822.946228
8859.294862	0.099166	0.229050	917.054993
8859.295774	0.099781	0.229050	1008.055725
8859.296677	0.102349	0.229050	1100.476562
8859.297595	0.099752	0.229050	1192.049072
8859.298530	0.098990	0.229050	1284.605225
8859.299432	0.101243	0.229050	1375.926147
8859.300327	0.101016	0.229050	1466.335083
8859.301272	0.099254	0.229050	1560.130249
8859.302184	0.098826	0.229050	1650.259277
8860.289492	0.700646	0.204969	311.787354
8860.290386	0.482695	0.204969	743.316956
8860.291354	0.098588	0.204969	838.749817
8860.292258	0.099694	0.204969	928.872803
8860.293155	0.101038	0.204969	1019.503540
8860.294042	0.101781	0.204969	1109.783325
8860.294987	0.099225	0.204969	1203.550781
8860.295888	0.101613	0.204969	1295.103638
8860.296784	0.101052	0.204969	1385.646484
8860.297713	0.099565	0.204969	1478.142822
8860.298609	0.098947	0.204969	1566.798950
8860.299515	0.101115	0.204969	1658.408691
8861.326793	0.719773	0.231975	313.821014
8861.327764	0.398478	0.231975	700.742920
8861.328670	0.099023	0.231975	790.458130
8861.329569	0.101759	0.231975	881.939514
8861.330454	0.100547	0.231975	970.923523
8861.331391	0.098844	0.231975	1063.540283
8861.332299	0.099327	0.231975	1153.729492
8861.333199	0.101708	0.231975	1245.266479
8861.334108	0.099250	0.231975	1335.485229
8861.335028	0.098445	0.231975	1426.054443
8861.335935	0.100203	0.231975	1516.938232
8861.336827	0.100869	0.231975	1606.913452
8862.326216	0.704037	0.207269	308.368134
8862.327112	0.473712	0.207269	732.814209
8862.328094	0.098525	0.207269	829.566162
8862.328998	0.100353	0.207269	920.285095
8862.329895	0.102444	0.207269	1012.177246
8862.330841	0.099470	0.207269	1106.276123
8862.331747	0.098793	0.207269	1195.782349
8862.332644	0.101444	0.207269	1286.777710
8862.333532	0.101122	0.207269	1376.573853
8862.334476	0.098522	0.207269	1469.578369
8862.335394	0.099269	0.207269	1560.707153
8862.336296	0.100745	0.207269	1651.578857
8863.357438	0.708446	0.236358	347.846985
8863.358363	0.460360	0.236358	773.680054
8863.359257	0.101364	0.236358	864.299072
8863.360145	0.101323	0.236358	954.274109
8863.361096	0.099005	0.236358	1048.427979
8863.361990	0.100353	0.236358	1138.143311
8863.362890	0.101217	0.236358	1229.238647
8863.363784	0.099972	0.236358	1318.613525
8863.364735	0.098870	0.236358	1412.638550
8863.365648	0.100096	0.236358	1504.026611
8863.366546	0.101224	0.236358	1594.926147
8863.367471	0.099177	0.236358	1686.665039
8864.364038	0.704509	0.208550	350.141144
8864.364969	0.459225	0.208550	777.679443
8864.365870	0.101309	0.208550	868.958496
8864.366762	0.101382	0.208550	959.391113
8864.367703	0.098888	0.208550	1052.444702
8864.368605	0.099829	0.208550	1142.490601
8864.369499	0.101001	0.208550	1232.785522
8864.370407	0.100334	0.208550	1323.889160
8864.371332	0.098514	0.208550	1415.015015
8864.372236	0.100020	0.208550	1505.432617
8864.373134	0.101100	0.208550	1596.220337
8864.374061	0.099137	0.208550	1688.120361
8865.387996	0.674264	0.242412	301.395966
8865.388926	0.469530	0.242412	738.058838
8865.389817	0.101385	0.242412	828.393311
8865.390767	0.098785	0.242412	922.239441
8865.391668	0.099547	0.242412	1011.931396
8865.392561	0.102491	0.242412	1103.456299
8865.393451	0.100726	0.242412	1193.102661
8865.394391	0.098785	0.242412	1285.960937
8865.395302	0.100232	0.242412	1377.272217
8865.396201	0.100514	0.242412	1467.634277
8865.397132	0.100459	0.242412	1561.161621
8865.398036	0.098665	0.242412	1650.354370
8866.402759	0.713979	0.207052	312.723022
8866.403724	0.366259	0.207052	666.162476
8866.404637	0.098123	0.207052	755.748352
8866.405536	0.100770	0.207052	846.340820
8866.406423	0.101360	0.207052	936.247009
8866.407363	0.099159	0.207052	1029.456421
8866.408269	0.099126	0.207052	1119.264526
8866.409172	0.101737	0.207052	1211.133057
8866.410062	0.100620	0.207052	1300.684937
8866.411004	0.098932	0.207052	1393.878784
8866.411909	0.100232	0.207052	1484.588745
8866.412803	0.102136	0.207052	1575.898560
8867.419589	0.731836	0.244547	316.884949
8867.420577	0.455043	0.244547	766.467163
8867.421477	0.098763	0.244547	855.354248
8867.422374	0.100924	0.244547	945.883118
8867.423261	0.100686	0.244547	1035.191650
8867.424207	0.099064	0.244547	1128.905884
8867.425107	0.099796	0.244547	1218.722412
8867.426004	0.102063	0.244547	1310.272949
8867.426937	0.099760	0.244547	1403.348633
8867.427848	0.098774	0.244547	1493.332153
8867.428752	0.101561	0.244547	1585.143555
8867.429641	0.100602	0.244547	1674.578613
8868.442583	0.714456	0.208800	315.074890
8868.443541	0.361194	0.208800	661.098633
8868.444448	0.098463	0.208800	750.404663
8868.445342	0.100770	0.208800	840.493286
8868.446233	0.100935	0.208800	930.426453
8868.447160	0.099034	0.208800	1022.231384
8868.448063	0.099547	0.208800	1112.122437
8868.448969	0.101792	0.208800	1204.345947
8868.449855	0.099650	0.208800	1292.635498
8868.450794	0.098427	0.208800	1385.057983
8868.451706	0.100320	0.208800	1476.549683
8868.452598	0.101016	0.208800	1566.655640
8869.449164	0.719535	0.240587	315.156311
8869.450056	0.469380	0.240587	733.843140
8869.451032	0.098210	0.240587	829.696533
8869.451929	0.100265	0.240587	919.634155
8869.452823	0.101492	0.240587	1010.367737
8869.453747	0.099705	0.240587	1102.494751
8869.454651	0.099005	0.240587	1191.995361
8869.455558	0.101188	0.240587	1283.772705
8869.456451	0.101569	0.240587	1374.473511
8869.457380	0.099174	0.240587	1466.605713
8869.458299	0.100404	0.240587	1558.877075
8869.459196	0.102026	0.240587	1650.394775
8870.482374	0.728148	0.210846	316.744446
8870.483331	0.358678	0.210846	659.999268
8870.484234	0.098009	0.210846	748.501404
8870.485129	0.101763	0.210846	839.578979
8870.486014	0.101074	0.210846	929.029663
8870.486965	0.098793	0.210846	1022.981567
8870.487871	0.099261	0.210846	1112.912476
8870.488774	0.102407	0.210846	1205.386230
8870.489663	0.100510	0.210846	1294.739868
8870.490610	0.098943	0.210846	1388.438721
8870.491515	0.100265	0.210846	1479.178467
8870.492414	0.102155	0.210846	1571.015381
8871.481810	0.719729	0.234327	319.559692
8871.482715	0.471665	0.234327	746.416565
8871.483600	0.100664	0.234327	835.504272
8871.484562	0.099580	0.234327	931.300293
8871.485461	0.100302	0.234327	1021.471375
8871.486352	0.101810	0.234327	1112.184326
8871.487273	0.099423	0.234327	1203.752563
8871.488186	0.099811	0.234327	1294.879761
8871.489089	0.101426	0.234327	1386.467285
8871.489979	0.101481	0.234327	1476.785156
8871.490901	0.099554	0.234327	1568.574341
8871.491816	0.101206	0.234327	1661.177856
8872.519106	0.728185	0.217731	317.488586
8872.520090	0.447001	0.217731	757.337280
8872.520997	0.098785	0.217731	846.935669
8872.521897	0.100953	0.217731	937.793701
8872.522786	0.100291	0.217731	1026.952026
8872.523731	0.099089	0.217731	1120.591431
8872.524627	0.100170	0.217731	1210.343506
8872.525526	0.101287	0.217731	1301.400146
8872.526464	0.099730	0.217731	1394.947144
8872.527368	0.099122	0.217731	1484.553711
8872.528270	0.102092	0.217731	1576.640991
8872.529166	0.101364	0.217731	1667.462646
8873.518553	0.668177	0.224494	298.675323
8873.519458	0.478125	0.224494	731.378418
8873.520348	0.099639	0.224494	820.056824
8873.521325	0.100873	0.224494	918.609558
8873.522224	0.101722	0.224494	1010.057983
8873.523149	0.102045	0.224494	1104.449341
8873.524036	0.100294	0.224494	1193.410278
8873.524989	0.100778	0.224494	1289.451294
8873.525907	0.100990	0.224494	1382.160156
8873.526794	0.101675	0.224494	1472.345703
8873.527740	0.100726	0.224494	1567.632812
8873.528639	0.100876	0.224494	1658.320801
8874.548680	0.728020	0.228539	315.960693
8874.549635	0.365189	0.228539	664.716370
8874.550547	0.098156	0.228539	754.234192
8874.551448	0.102458	0.228539	846.549316
8874.552337	0.101331	0.228539	936.632202
8874.553295	0.098580	0.228539	1031.072144
8874.554197	0.099814	0.228539	1121.104736
8874.555089	0.101213	0.228539	1211.387085
8874.555981	0.100646	0.228539	1301.163086
8874.556921	0.098906	0.228539	1394.135010
8874.557827	0.100909	0.228539	1485.558960
8874.558721	0.102081	0.228539	1576.819580
8875.560456	0.654020	0.221328	329.625977
8875.561362	0.463791	0.221328	749.821045
8875.562283	0.100477	0.221328	842.360657
8875.563178	0.100349	0.221328	932.173096
8875.564130	0.099507	0.221328	1026.903564
8875.565039	0.101656	0.221328	1119.309326
8875.565928	0.100792	0.221328	1208.913574
8875.566840	0.099642	0.221328	1299.787354
8875.567769	0.101001	0.221328	1393.617310
8875.568661	0.100745	0.221328	1483.481567
8875.569552	0.101082	0.221328	1573.545166
8875.570485	0.098943	0.221328	1665.858887
8876.575172	0.728156	0.238267	316.747681
8876.576136	0.382599	0.238267	685.572998
8876.577041	0.098324	0.238267	774.556213
8876.577945	0.101488	0.238267	866.301392
8876.578834	0.101433	0.238267	956.475403
8876.579778	0.098888	0.238267	1049.825684
8876.580666	0.100023	0.238267	1138.646240
8876.581572	0.101085	0.238267	1230.229492
8876.582467	0.099807	0.238267	1319.556885
8876.583411	0.098383	0.238267	1412.430054
8876.584313	0.100573	0.238267	1503.146484
8876.585209	0.102283	0.238267	1594.791748
8877.604327	0.669258	0.209340	307.189331
8877.605244	0.469519	0.209340	737.738281
8877.606166	0.101133	0.209340	830.982727
8877.607067	0.100247	0.209340	921.304871
8877.607999	0.101788	0.209340	1016.171570
8877.608920	0.102469	0.209340	1110.545898
8877.609816	0.100748	0.209340	1200.816406
8877.610777	0.100228	0.209340	1297.135742
8877.611685	0.102341	0.209340	1390.061646
8877.612600	0.100715	0.209340	1482.216187
8877.613488	0.101539	0.209340	1572.383057
8877.614433	0.100814	0.209340	1667.652466
8878.601669	0.722893	0.239443	313.735596
8878.602625	0.417382	0.239443	712.752380
8878.603531	0.098496	0.239443	801.989868
8878.604429	0.101206	0.239443	892.872925
8878.605316	0.100829	0.239443	982.308105
8878.606274	0.098947	0.239443	1077.098877
8878.607164	0.100715	0.239443	1166.735474
8878.608070	0.101821	0.239443	1258.985596
8878.608985	0.099778	0.239443	1350.282349
8878.609921	0.098939	0.239443	1442.889404
8878.610825	0.101349	0.239443	1534.508789
8878.611723	0.101832	0.239443	1625.954224
8879.647244	0.581645	0.207990	291.986023
8879.648170	0.433077	0.207990	693.015625
8879.649095	0.099639	0.207990	785.181396
8879.649984	0.100356	0.207990	874.398254
8879.650940	0.100873	0.207990	970.832642
8879.651860	0.100825	0.207990	1063.591797
8879.652748	0.101345	0.207990	1153.586304
8879.653680	0.099609	0.207990	1246.422241
8879.654583	0.101177	0.207990	1337.784912
8879.655508	0.101543	0.207990	1431.712158
8879.656400	0.100027	0.207990	1520.936157
8879.657357	0.100400	0.207990	1617.019287
8880.629246	0.562778	0.231350	271.821930
8880.630170	0.469673	0.231350	705.799622
8880.631070	0.100701	0.231350	796.430237
8880.631958	0.099822	0.231350	885.071960
8880.632914	0.098914	0.231350	979.633362
8880.633823	0.100023	0.231350	1070.554443
8880.634719	0.100906	0.231350	1160.966064
8880.635651	0.099100	0.231350	1253.327637
8880.636557	0.098716	0.231350	1342.764160
8880.637459	0.101832	0.231350	1434.616821
8880.638352	0.101246	0.231350	1525.029785
8880.639294	0.098796	0.231350	1618.095947
8881.687050	0.554601	0.213988	277.855011
8881.687976	0.433828	0.213988	679.579834
8881.688900	0.102030	0.213988	773.855591
8881.689795	0.100470	0.213988	863.776245
8881.690743	0.101001	0.213988	959.525146
8881.691664	0.100247	0.213988	1051.852295
8881.692555	0.101565	0.213988	1142.346680
8881.693485	0.100939	0.213988	1236.219727
8881.694416	0.102382	0.213988	1331.536987
8881.695327	0.102030	0.213988	1424.486328
8881.696212	0.101100	0.213988	1513.959717
8881.697152	0.100192	0.213988	1608.139893
8882.663893	0.686906	0.227048	309.107483
8882.664793	0.472690	0.227048	734.528809
8882.665742	0.098221	0.227048	827.740967
8882.666648	0.099243	0.227048	917.655273
8882.667553	0.101133	0.227048	1009.180481
8882.668443	0.100708	0.227048	1098.810547
8882.669400	0.098738	0.227048	1193.302612
8882.670310	0.100741	0.227048	1284.976929
8882.671204	0.101089	0.227048	1375.350342
8882.672139	0.099796	0.227048	1468.659790
8882.673044	0.099159	0.227048	1558.398682
8882.673951	0.100616	0.227048	1649.657837
8883.720654	0.728412	0.225759	319.772797
8883.721553	0.463282	0.225759	736.263733
8883.722502	0.098419	0.225759	829.663574
8883.723419	0.099862	0.225759	921.237061
8883.724328	0.101477	0.225759	1013.479675
8883.725252	0.101638	0.225759	1107.393311
8883.726140	0.101023	0.225759	1197.101685
8883.727087	0.100536	0.225759	1292.309204
8883.728020	0.101499	0.225759	1387.007812
8883.728911	0.101393	0.225759	1477.348877
8883.729816	0.100356	0.225759	1568.171509
8883.730757	0.100924	0.225759	1663.141113
8884.700623	0.691644	0.223809	303.631836
8884.701519	0.475686	0.223809	729.846558
8884.702470	0.098357	0.223809	823.384033
8884.703380	0.100287	0.223809	914.645081
8884.704281	0.101287	0.223809	1005.904297
8884.705202	0.100115	0.223809	1098.109985
8884.706105	0.099001	0.223809	1187.508301
8884.706997	0.102762	0.223809	1279.172363
8884.707885	0.101495	0.223809	1369.300293
8884.708822	0.098855	0.223809	1461.927368
8884.709722	0.099543	0.223809	1551.516479
8884.710625	0.100664	0.223809	1642.416138
8885.750228	0.679867	0.230017	305.260284
8885.751123	0.481710	0.230017	736.390930
8885.752079	0.098317	0.230017	830.381653
8885.752993	0.099884	0.230017	921.675659
8885.753902	0.102078	0.230017	1014.464233
8885.754793	0.100063	0.230017	1103.620850
8885.755743	0.098990	0.230017	1197.661865
8885.756647	0.101287	0.230017	1289.224976
8885.757540	0.102067	0.230017	1380.370483
8885.758488	0.099119	0.230017	1474.334961
8885.759392	0.098859	0.230017	1563.703125
8885.760293	0.101320	0.230017	1654.992065
8886.739416	0.677765	0.220643	304.316437
8886.740319	0.459104	0.220643	718.887390
8886.741207	0.100701	0.220643	808.309570
8886.742153	0.099159	0.220643	902.113892
8886.743062	0.100818	0.220643	993.757324
8886.743962	0.101517	0.220643	1085.122925
8886.744884	0.100173	0.220643	1177.482788
8886.745802	0.098676	0.220643	1268.066895
8886.746708	0.101008	0.220643	1359.580444
8886.747603	0.100679	0.220643	1449.687866
8886.748546	0.098870	0.220643	1542.921875
8886.749446	0.098650	0.220643	1631.706787
8887.781913	0.550151	0.235443	280.577179
8887.782830	0.469622	0.235443	711.220154
8887.783723	0.102286	0.235443	802.561890
8887.784613	0.099500	0.235443	891.116455
8887.785573	0.098789	0.235443	985.953979
8887.786475	0.100573	0.235443	1076.670410
8887.787375	0.102162	0.235443	1168.616089
8887.788301	0.099327	0.235443	1260.593262
8887.789208	0.098906	0.235443	1350.301270
8887.790108	0.102019	0.235443	1442.118408
8887.790996	0.101349	0.235443	1532.116211
8887.791932	0.098818	0.235443	1624.610229
8888.779240	0.659791	0.215527	302.184387
8888.780143	0.463751	0.215527	720.951782
8888.781032	0.099939	0.215527	809.797546
8888.781988	0.098646	0.215527	904.103333
8888.782888	0.100250	0.215527	994.328552
8888.783784	0.102158	0.215527	1085.862305
8888.784708	0.099423	0.215527	1177.728760
8888.785618	0.098807	0.215527	1267.643433
8888.786521	0.101473	0.215527	1359.273926
8888.787419	0.101202	0.215527	1450.153687
8888.788347	0.099207	0.215527	1542.217407
8888.789246	0.099067	0.215527	1631.278931
8889.812438	0.686613	0.234432	305.542572
8889.813341	0.458229	0.234432	719.323120
8889.814230	0.100291	0.234432	808.481384
8889.815176	0.098540	0.234432	901.700256
8889.816092	0.100192	0.234432	993.475830
8889.816989	0.101470	0.234432	1084.494141
8889.817910	0.100034	0.234432	1176.625610
8889.818829	0.098730	0.234432	1267.358887
8889.819736	0.099602	0.234432	1357.697998
8889.820628	0.101927	0.234432	1448.617310
8889.821563	0.098873	0.234432	1541.063843
8889.822463	0.098866	0.234432	1630.043213
8890.816966	0.717360	0.209996	312.051422
8890.817912	0.412134	0.209996	701.929993
8890.818820	0.098350	0.209996	791.231445
8890.819715	0.101049	0.209996	881.669922
8890.820600	0.100994	0.209996	971.049316
8890.821533	0.099229	0.209996	1063.629517
8890.822445	0.099873	0.209996	1154.713745
8890.823351	0.102096	0.209996	1247.212646
8890.824240	0.100649	0.209996	1336.689941
8890.825193	0.098785	0.209996	1430.832397
8890.826101	0.100107	0.209996	1521.729980
8890.827001	0.101711	0.209996	1613.270264
8891.845080	0.686697	0.236164	304.893372
8891.846007	0.460847	0.236164	732.098694
8891.846896	0.100378	0.236164	821.335083
8891.847837	0.099467	0.236164	914.933105
8891.848745	0.098723	0.236164	1004.573730
8891.849645	0.101836	0.236164	1096.226074
8891.850537	0.102338	0.236164	1187.511230
8891.851486	0.098448	0.236164	1280.938843
8891.852386	0.099130	0.236164	1370.155518
8891.853293	0.102491	0.236164	1463.115234
8891.854183	0.100334	0.236164	1552.412964
8891.855131	0.098826	0.236164	1646.099731
8892.852689	0.705685	0.210133	314.029724
8892.853589	0.475148	0.210133	741.662659
8892.854536	0.098628	0.210133	835.063293
8892.855438	0.098990	0.210133	924.352722
8892.856337	0.101089	0.210133	1015.231628
8892.857225	0.101532	0.210133	1105.392090
8892.858169	0.098994	0.210133	1198.842529
8892.859063	0.099591	0.210133	1287.876953
8892.859969	0.101415	0.210133	1379.758789
8892.860866	0.099972	0.210133	1469.433594
8892.861813	0.098738	0.210133	1562.938232
8892.862722	0.100679	0.210133	1654.455200
8893.880803	0.719315	0.239633	333.762238
8893.881750	0.426936	0.239633	738.070679
8893.882657	0.100188	0.239633	828.941162
8893.883544	0.101821	0.239633	919.256653
8893.884470	0.098998	0.239633	1010.928589
8893.885378	0.098906	0.239633	1100.735474
8893.886281	0.101646	0.239633	1192.521362
8893.887176	0.101071	0.239633	1282.979492
8893.888120	0.098738	0.239633	1376.187988
8893.889028	0.099386	0.239633	1466.430420
8893.889928	0.100928	0.239633	1557.265381
8893.890857	0.100247	0.239633	1650.394409
8894.887410	0.723380	0.208586	346.499084
8894.888353	0.466871	0.208586	786.758728
8894.889268	0.100349	0.208586	878.578186
8894.890163	0.102151	0.208586	970.003235
8894.891112	0.099851	0.208586	1064.761963
8894.892013	0.099470	0.208586	1154.384644
8894.892913	0.101492	0.208586	1245.727173
8894.893801	0.100386	0.208586	1334.869751
8894.894741	0.098789	0.208586	1427.731445
8894.895638	0.099727	0.208586	1517.186157
8894.896538	0.101960	0.208586	1608.950562
8894.897469	0.100243	0.208586	1702.276733
8895.915475	0.704714	0.238883	311.483734
8895.916383	0.474803	0.238883	742.605225
8895.917305	0.099042	0.238883	833.921692
8895.918217	0.098540	0.238883	923.790222
8895.919123	0.100122	0.238883	1014.500793
8895.920010	0.101583	0.238883	1104.605103
8895.920940	0.099122	0.238883	1196.788818
8895.921850	0.099009	0.238883	1286.886841
8895.922753	0.101777	0.238883	1378.791748
8895.923644	0.101144	0.238883	1468.910889
8895.924586	0.098826	0.238883	1562.004639
8895.925485	0.100126	0.238883	1652.017700
8896.920004	0.721249	0.212264	311.579468
8896.920935	0.471665	0.212264	750.699646
8896.921887	0.099034	0.212264	844.980408
8896.922800	0.100961	0.212264	937.157532
8896.923695	0.101829	0.212264	1028.294189
8896.924645	0.099840	0.212264	1123.142334
8896.925555	0.100496	0.212264	1214.593384
8896.926447	0.102466	0.212264	1305.992920
8896.927331	0.101224	0.212264	1395.475220
8896.928271	0.098767	0.212264	1488.316284
8896.929177	0.100591	0.212264	1579.451538
8896.930068	0.101704	0.212264	1670.069946
8897.951186	0.692003	0.238585	305.865387
8897.952112	0.443159	0.238585	716.230835
8897.953012	0.100690	0.238585	806.851562
8897.953965	0.099543	0.238585	901.716492
8897.954872	0.098844	0.238585	991.367981
8897.955773	0.101444	0.238585	1082.769043
8897.956659	0.101235	0.238585	1172.463623
8897.957597	0.098829	0.238585	1265.165527
8897.958496	0.100074	0.238585	1355.132446
8897.959401	0.100876	0.238585	1446.425659
8897.960288	0.100162	0.238585	1535.269653
8897.961243	0.098741	0.238585	1629.567749
8898.952664	0.664138	0.215660	299.526337
8898.953613	0.468453	0.215660	744.088623
8898.954504	0.099496	0.215660	832.739441
8898.955477	0.100389	0.215660	930.418335
8898.956379	0.101906	0.215660	1022.337097
8898.957268	0.101638	0.215660	1112.693481
8898.958212	0.099199	0.215660	1206.337524
8898.959115	0.101100	0.215660	1297.630737
8898.960028	0.101089	0.215660	1389.924927
8898.960915	0.100265	0.215660	1478.859863
8898.961856	0.100228	0.215660	1573.174683
8898.962755	0.101927	0.215660	1664.807495
8899.988946	0.700151	0.242420	310.167053
8899.989844	0.470698	0.242420	732.854126
8899.990807	0.098646	0.242420	827.850464
8899.991711	0.099510	0.242420	917.807983
8899.992604	0.101726	0.242420	1008.649353
8899.993508	0.099968	0.242420	1099.020630
8899.994426	0.098910	0.242420	1189.819946
8899.995330	0.100188	0.242420	1280.389893
8899.996228	0.102173	0.242420	1372.141113
8899.997152	0.098932	0.242420	1463.554199
8899.998056	0.098613	0.242420	1552.700562
8899.998958	0.100463	0.242420	1643.317871
8900.983243	0.705304	0.222835	309.628418
8900.984141	0.478718	0.222835	739.517456
8900.985110	0.100056	0.222835	836.471863
8900.986018	0.100741	0.222835	927.944641
8900.986911	0.101404	0.222835	1018.498230
8900.987849	0.099342	0.222835	1111.681030
8900.988759	0.101129	0.222835	1203.708496
8900.989678	0.100884	0.222835	1296.420654
8900.990566	0.100884	0.222835	1386.005493
8900.991511	0.099353	0.222835	1479.894043
8900.992413	0.102506	0.222835	1572.354492
8900.993335	0.100807	0.222835	1665.298462
8902.027734	0.676366	0.236595	303.688324
8902.028639	0.476561	0.236595	734.976318
8902.029527	0.100682	0.236595	824.382263
8902.030475	0.098716	0.236595	917.964844
8902.031376	0.099280	0.236595	1007.415955
8902.032274	0.101008	0.236595	1098.121460
8902.033160	0.100422	0.236595	1187.095703
8902.034111	0.098628	0.236595	1280.890869
8902.035018	0.100371	0.236595	1371.927490
8902.035919	0.101385	0.236595	1463.275879
8902.036857	0.099170	0.236595	1556.297241
8902.037762	0.098665	0.236595	1645.588623
8903.013889	0.735267	0.227310	363.957336
8903.014824	0.456346	0.227310	790.641235
8903.015726	0.100496	0.227310	881.288269
8903.016615	0.101854	0.227310	971.836670
8903.017551	0.099917	0.227310	1065.359009
8903.018459	0.099998	0.227310	1156.156738
8903.019360	0.100192	0.227310	1246.429443
8903.020251	0.099305	0.227310	1334.910522
8903.021202	0.098976	0.227310	1429.036499
8903.022096	0.100972	0.227310	1519.305176
8903.022993	0.100598	0.227310	1609.541748
8903.023929	0.099573	0.227310	1702.741821
8904.065487	0.691721	0.235931	302.282135
8904.066390	0.469211	0.235931	725.980103
8904.067347	0.098210	0.235931	819.967529
8904.068255	0.100664	0.235931	911.370483
8904.069146	0.101180	0.235931	1001.522217
8904.070084	0.098932	0.235931	1094.320312
8904.070984	0.098969	0.235931	1183.391968
8904.071880	0.101722	0.235931	1274.535278
8904.072772	0.101481	0.235931	1365.056030
8904.073718	0.098870	0.235931	1458.586670
8904.074615	0.099694	0.235931	1548.011841
8904.075516	0.101301	0.235931	1639.284302
8905.046478	0.717902	0.232011	315.876709
8905.047453	0.468413	0.232011	772.579468
8905.048359	0.100397	0.232011	863.538879
8905.049248	0.101466	0.232011	953.742187
8905.050180	0.099620	0.232011	1046.588379
8905.051104	0.098914	0.232011	1137.984497
8905.052008	0.101671	0.232011	1229.895264
8905.052899	0.101327	0.232011	1320.177490
8905.053848	0.099093	0.232011	1414.216797
8905.054762	0.100206	0.232011	1505.805420
8905.055655	0.101422	0.232011	1596.375366
8905.056545	0.100316	0.232011	1685.656738
8906.102217	0.728090	0.226887	317.447052
8906.103195	0.364003	0.226887	673.441711
8906.104089	0.098163	0.226887	761.199280
8906.104989	0.102081	0.226887	853.072449
8906.105878	0.100708	0.226887	942.601868
8906.106827	0.098979	0.226887	1036.533447
8906.107728	0.100111	0.226887	1126.733521
8906.108633	0.102737	0.226887	1219.710327
8906.109526	0.100280	0.226887	1309.260010
8906.110465	0.098763	0.226887	1401.998901
8906.111363	0.099679	0.226887	1491.510620
8906.112255	0.100616	0.226887	1581.260498
8907.082185	0.728090	0.237337	318.903229
8907.083145	0.417063	0.237337	719.283691
8907.084062	0.098522	0.237337	809.628113
8907.084962	0.101276	0.237337	900.776184
8907.085852	0.100419	0.237337	990.148804
8907.086799	0.098701	0.237337	1083.618774
8907.087708	0.099478	0.237337	1174.043823
8907.088612	0.101558	0.237337	1265.851929
8907.089534	0.099404	0.237337	1357.502686
8907.090439	0.098782	0.237337	1446.900146
8907.091350	0.100979	0.237337	1538.891968
8907.092242	0.100865	0.237337	1628.864014
8908.132875	0.715345	0.224676	359.103424
8908.133800	0.470098	0.224676	793.943726
8908.134691	0.100854	0.224676	883.805054
8908.135580	0.101082	0.224676	973.666565
8908.136518	0.098708	0.224676	1066.255127
8908.137426	0.099489	0.224676	1156.590698
8908.138331	0.100931	0.224676	1247.933594
8908.139220	0.100181	0.224676	1336.994141
8908.140169	0.098818	0.224676	1430.772705
8908.141075	0.100580	0.224676	1521.898071
8908.141968	0.101261	0.224676	1612.324097
8908.142914	0.100342	0.224676	1707.247437
8909.120989	0.701136	0.239717	317.614807
8909.121886	0.478575	0.239717	746.896973
8909.122839	0.099452	0.239717	841.674622
8909.123730	0.098969	0.239717	929.855591
8909.124630	0.101492	0.239717	1021.198120
8909.125524	0.100594	0.239717	1111.129639
8909.126458	0.098994	0.239717	1203.590210
8909.127364	0.099646	0.239717	1293.869507
8909.128271	0.101056	0.239717	1385.527222
8909.129160	0.099774	0.239717	1474.226440
8909.130104	0.098580	0.239717	1567.286255
8909.131014	0.100177	0.239717	1658.447266
8910.162383	0.714529	0.224152	318.679871
8910.163280	0.470914	0.224152	741.089966
8910.164246	0.099437	0.224152	837.146362
8910.165140	0.101125	0.224152	927.552551
8910.166033	0.101279	0.224152	1017.994995
8910.166969	0.098987	0.224152	1110.646606
8910.167875	0.099983	0.224152	1201.231079
8910.168792	0.101931	0.224152	1294.701904
8910.169688	0.101111	0.224152	1385.297241
8910.170622	0.099631	0.224152	1478.352905
8910.171536	0.100726	0.224152	1570.416748
8910.172456	0.100602	0.224152	1662.970459
8911.162881	0.554040	0.243238	269.263672
8911.163801	0.471984	0.243238	703.488647
8911.164699	0.100291	0.243238	793.549561
8911.165586	0.100287	0.243238	882.504028
8911.166546	0.098617	0.243238	977.176270
8911.167459	0.100818	0.243238	1069.223022
8911.168347	0.101708	0.243238	1159.539551
8911.169277	0.099104	0.243238	1251.706299
8911.170175	0.098496	0.243238	1340.155762
8911.171076	0.100719	0.243238	1430.903564
8911.171968	0.100854	0.243238	1520.865723
8911.172927	0.098807	0.243238	1615.621948
8912.189944	0.618402	0.225401	294.977783
8912.190869	0.453358	0.225401	714.334106
8912.191769	0.102682	0.225401	806.747803
8912.192654	0.100591	0.225401	895.770691
8912.193600	0.099423	0.225401	989.824463
8912.194503	0.101323	0.225401	1081.319336
8912.195399	0.101671	0.225401	1172.416626
8912.196335	0.099679	0.225401	1265.716064
8912.197251	0.100020	0.225401	1357.333984
8912.198145	0.100302	0.225401	1447.003540
8912.199035	0.100437	0.225401	1536.392456
8912.199990	0.098368	0.225401	1630.333862
8913.205770	0.716814	0.236845	360.557434
8913.206697	0.462114	0.236845	788.937378
8913.207599	0.101265	0.236845	880.278076
8913.208486	0.101327	0.236845	970.155029
8913.209433	0.099141	0.236845	1064.041260
8913.210334	0.099902	0.236845	1154.053223
8913.211235	0.101572	0.236845	1245.569824
8913.212125	0.100602	0.236845	1335.105469
8913.213060	0.098939	0.236845	1427.613647
8913.213969	0.099598	0.236845	1518.148560
8913.214862	0.102378	0.236845	1609.572021
8913.215794	0.098925	0.236845	1701.769775
8914.218444	0.719703	0.234315	315.949768
8914.219425	0.459972	0.234315	767.182251
8914.220333	0.099434	0.234315	857.467957
8914.221226	0.100759	0.234315	947.445984
8914.222154	0.101664	0.234315	1041.790039
8914.223070	0.099137	0.234315	1132.599487
8914.223978	0.100829	0.234315	1224.152100
8914.224877	0.101521	0.234315	1315.419434
8914.225805	0.099170	0.234315	1407.449097
8914.226710	0.099210	0.234315	1497.234375
8914.227602	0.101569	0.234315	1587.833618
8914.228491	0.102297	0.234315	1678.776001
8915.246547	0.700463	0.230509	310.304962
8915.247449	0.466172	0.230509	730.791992
8915.248338	0.100942	0.230509	820.529785
8915.249304	0.098881	0.230509	916.048462
8915.250209	0.100444	0.230509	1006.950562
8915.251105	0.100997	0.230509	1097.444092
8915.252018	0.099584	0.230509	1188.364014
8915.252935	0.098496	0.230509	1278.684937
8915.253849	0.100950	0.230509	1370.953003
8915.254739	0.100983	0.230509	1460.827637
8915.255670	0.098884	0.230509	1552.888916
8915.256577	0.098914	0.230509	1642.603516
8916.250070	0.686862	0.239931	307.713989
8916.250976	0.476528	0.239931	739.448608
8916.251893	0.099540	0.239931	830.726624
8916.252823	0.098727	0.239931	922.542542
8916.253727	0.100488	0.239931	1013.383972
8916.254627	0.102477	0.239931	1105.613037
8916.255554	0.098983	0.239931	1197.370361
8916.256462	0.099108	0.239931	1287.360107
8916.257368	0.101909	0.239931	1379.689819
8916.258260	0.101649	0.239931	1470.360840
8916.259202	0.098906	0.239931	1563.530518
8916.260111	0.099690	0.239931	1654.148682
8917.283324	0.632424	0.225131	304.828522
8917.284226	0.470098	0.225131	728.856567
8917.285116	0.101213	0.225131	818.936462
8917.286031	0.099305	0.225131	909.800903
8917.286970	0.100378	0.225131	1004.056213
8917.287871	0.100635	0.225131	1094.728149
8917.288760	0.102341	0.225131	1185.709595
8917.289703	0.099401	0.225131	1279.444336
8917.290618	0.101184	0.225131	1372.027710
8917.291535	0.101320	0.225131	1464.937744
8917.292422	0.100276	0.225131	1553.882446
8917.293366	0.099924	0.225131	1648.211060
8918.284751	0.714822	0.242203	315.951202
8918.285728	0.446733	0.242203	752.409729
8918.286639	0.099250	0.242203	842.826904
8918.287528	0.101781	0.242203	933.310242
8918.288462	0.099891	0.242203	1026.608765
8918.289376	0.099016	0.242203	1117.109497
8918.290288	0.100690	0.242203	1208.938477
8918.291183	0.101265	0.242203	1299.570312
8918.292114	0.098994	0.242203	1391.733887
8918.293022	0.099170	0.242203	1481.780151
8918.293930	0.101572	0.242203	1574.007812
8918.294823	0.100679	0.242203	1663.913940
8919.317958	0.718275	0.222750	311.731415
8919.318937	0.347457	0.222750	651.892090
8919.319847	0.099683	0.222750	742.603271
8919.320754	0.102235	0.222750	835.330505
8919.321646	0.100554	0.222750	925.024841
8919.322577	0.098928	0.222750	1017.127014
8919.323489	0.100430	0.222750	1108.718872
8919.324394	0.101093	0.222750	1200.207642
8919.325282	0.101254	0.222750	1290.120850
8919.326228	0.098969	0.222750	1383.745117
8919.327129	0.101946	0.222750	1475.598267
8919.328019	0.101550	0.222750	1565.978027
8920.321516	0.718737	0.248680	341.399872
8920.322454	0.469087	0.248680	781.403442
8920.323367	0.100356	0.248680	873.028870
8920.324261	0.101616	0.248680	963.873779
8920.325200	0.099628	0.248680	1057.424194
8920.326094	0.099503	0.248680	1146.380005
8920.327000	0.102253	0.248680	1239.021606
8920.327892	0.101184	0.248680	1329.277832
8920.328848	0.098976	0.248680	1423.898682
8920.329758	0.099430	0.248680	1514.379883
8920.330666	0.101895	0.248680	1606.900146
8920.331598	0.099115	0.248680	1699.275269
8921.349593	0.705791	0.221739	316.900146
8921.350492	0.477817	0.221739	746.458008
8921.351419	0.099185	0.221739	838.402100
8921.352342	0.098621	0.221739	929.428955
8921.353257	0.100635	0.221739	1021.509766
8921.354155	0.100979	0.221739	1112.188965
8921.355092	0.098950	0.221739	1204.905273
8921.355994	0.099104	0.221739	1294.297119
8921.356903	0.101125	0.221739	1386.220215
8921.357796	0.100397	0.221739	1475.874512
8921.358748	0.098939	0.221739	1570.064697
8921.359646	0.100265	0.221739	1660.102539
8922.357187	0.733158	0.247830	317.457397
8922.358151	0.354023	0.247830	658.735962
8922.359063	0.098452	0.247830	748.524292
8922.359959	0.102506	0.247830	840.369751
8922.360847	0.101675	0.247830	930.656982
8922.361804	0.099027	0.247830	1025.425903
8922.362703	0.099166	0.247830	1114.576416
8922.363608	0.100719	0.247830	1205.727051
8922.364499	0.099346	0.247830	1294.244019
8922.365445	0.098602	0.247830	1387.521729
8922.366349	0.100067	0.247830	1477.982422
8922.367248	0.100411	0.247830	1568.252197
8923.381245	0.720432	0.219644	351.570862
8923.382178	0.456266	0.219644	777.266907
8923.383087	0.099767	0.219644	867.954956
8923.383977	0.101144	0.219644	957.972961
8923.384915	0.098698	0.219644	1050.551270
8923.385820	0.099254	0.219644	1140.376221
8923.386719	0.102301	0.219644	1232.344849
8923.387610	0.100375	0.219644	1321.778809
8923.388566	0.098888	0.219644	1416.315674
8923.389468	0.099913	0.219644	1506.437500
8923.390370	0.101627	0.219644	1598.105225
8923.391296	0.099983	0.219644	1690.689453
8924.393953	0.649614	0.249921	295.574493
8924.394858	0.477971	0.249921	728.138428
8924.395808	0.098738	0.249921	821.939331
8924.396716	0.101495	0.249921	914.097107
8924.397636	0.101371	0.249921	1007.358276
8924.398524	0.099628	0.249921	1095.827637
8924.399478	0.100411	0.249921	1191.620117
8924.400378	0.100514	0.249921	1282.082642
8924.401264	0.101664	0.249921	1372.156738
8924.402195	0.098837	0.249921	1464.173706
8924.403100	0.100280	0.249921	1554.926636
8924.404016	0.100397	0.249921	1646.890015
8925.413837	0.699946	0.218557	310.076202
8925.414816	0.426859	0.218557	727.971313
8925.415717	0.098793	0.218557	816.983582
8925.416611	0.101488	0.218557	907.713867
8925.417497	0.100020	0.218557	996.331177
8925.418431	0.098741	0.218557	1088.555664
8925.419342	0.100115	0.218557	1179.760254
8925.420242	0.100858	0.218557	1270.532593
8925.421170	0.099470	0.218557	1362.840942
8925.422073	0.098610	0.218557	1451.885376
8925.422976	0.100924	0.218557	1543.019775
8925.423862	0.101931	0.218557	1633.330811
8926.430665	0.717675	0.244817	311.470764
8926.431617	0.428990	0.244817	719.869690
8926.432535	0.099540	0.244817	811.247192
8926.433438	0.101283	0.244817	902.705688
8926.434326	0.100800	0.244817	992.215698
8926.435278	0.098807	0.244817	1086.280273
8926.436176	0.100496	0.244817	1176.525391
8926.437069	0.100836	0.244817	1266.572144
8926.437980	0.100170	0.244817	1357.826660
8926.438895	0.099137	0.244817	1448.536987
8926.439800	0.101803	0.244817	1540.668701
8926.440688	0.100983	0.244817	1630.341309
8927.450570	0.693904	0.209541	306.011566
8927.451550	0.460551	0.209541	757.351074
8927.452467	0.100049	0.209541	849.095825
8927.453358	0.101096	0.209541	939.172546
8927.454300	0.099338	0.209541	1032.749268
8927.455195	0.098851	0.209541	1121.221191
8927.456099	0.100638	0.209541	1212.198364
8927.456989	0.102224	0.209541	1303.177856
8927.457932	0.099122	0.209541	1396.650146
8927.458840	0.099188	0.209541	1486.713013
8927.459747	0.101389	0.209541	1578.672974
8927.460638	0.100653	0.209541	1668.354858
8928.465369	0.663336	0.246690	300.491302
8928.466286	0.478348	0.246690	739.136780
8928.467178	0.099423	0.246690	827.821716
8928.468144	0.098694	0.246690	923.159973
8928.469068	0.099924	0.246690	1015.490051
8928.469966	0.101100	0.246690	1106.277710
8928.470894	0.099309	0.246690	1198.436523
8928.471797	0.098829	0.246690	1287.679443
8928.472692	0.102722	0.246690	1379.615723
8928.473579	0.101023	0.246690	1469.223145
8928.474519	0.098866	0.246690	1562.157104
8928.475425	0.099917	0.246690	1652.681885
8929.486288	0.714419	0.213364	314.344330
8929.487184	0.481703	0.213364	745.950134
8929.488126	0.098401	0.213364	838.643799
8929.489036	0.100258	0.213364	929.878174
8929.489922	0.101466	0.213364	1019.777100
8929.490851	0.099459	0.213364	1112.174683
8929.491759	0.098928	0.213364	1202.001465
8929.492661	0.100858	0.213364	1292.975464
8929.493548	0.100565	0.213364	1382.176758
8929.494498	0.099038	0.213364	1476.262939
8929.495402	0.099701	0.213364	1566.392578
8929.496308	0.101543	0.213364	1658.390503
8930.500038	0.733077	0.245018	320.354797
8930.501016	0.465923	0.245018	776.027344
8930.501925	0.099375	0.245018	866.359192
8930.502831	0.101199	0.245018	958.045227
8930.503720	0.100583	0.245018	1047.463989
8930.504681	0.098892	0.245018	1142.498779
8930.505584	0.100818	0.245018	1233.537354
8930.506476	0.101649	0.245018	1324.208374
8930.507422	0.099587	0.245018	1418.418091
8930.508319	0.098899	0.245018	1507.130371
8930.509212	0.102052	0.245018	1598.262817
8930.510099	0.100785	0.245018	1687.659058
8931.523017	0.719008	0.213980	314.925293
8931.523914	0.482443	0.213980	747.676392
8931.524880	0.098679	0.213980	843.000488
8931.525778	0.101206	0.213980	933.883545
8931.526669	0.101309	0.213980	1024.149536
8931.527615	0.099994	0.213980	1118.743774
8931.528517	0.099855	0.213980	1208.812744
8931.529421	0.100759	0.213980	1299.899170
8931.530311	0.101133	0.213980	1389.907349
8931.531246	0.098588	0.213980	1482.086792
8931.532157	0.099789	0.213980	1572.994385
8931.533058	0.100679	0.213980	1663.705933
8932.531673	0.672924	0.248060	302.815643
8932.532579	0.477382	0.248060	735.323364
8932.533468	0.099386	0.248060	823.677490
8932.534429	0.098525	0.248060	918.360413
8932.535338	0.100444	0.248060	1009.664307
8932.536236	0.102667	0.248060	1101.859497
8932.537155	0.099064	0.248060	1192.899048
8932.538055	0.098602	0.248060	1281.641113
8932.538957	0.100690	0.248060	1372.463257
8932.539843	0.100049	0.248060	1461.106567
8932.540774	0.098734	0.248060	1553.028076
8932.541682	0.099452	0.248060	1643.330444
8933.558745	0.676428	0.220659	304.392731
8933.559644	0.474818	0.220659	731.254272
8933.560603	0.098705	0.220659	825.912231
8933.561501	0.099631	0.220659	915.381165
8933.562401	0.101232	0.220659	1006.489685
8933.563289	0.100063	0.220659	1095.346069
8933.564240	0.098844	0.220659	1189.346680
8933.565137	0.100990	0.220659	1279.934692
8933.566040	0.100646	0.220659	1370.817749
8933.566974	0.099155	0.220659	1463.428711
8933.567886	0.098328	0.220659	1553.103516
8933.568789	0.100576	0.220659	1643.923828
8934.564306	0.700466	0.250187	306.804260
8934.565234	0.468827	0.250187	741.875610
8934.566130	0.100386	0.250187	831.821228
8934.567066	0.098826	0.250187	924.322083
8934.567970	0.099104	0.250187	1013.912109
8934.568872	0.101140	0.250187	1105.140503
8934.569755	0.101202	0.250187	1194.502197
8934.570695	0.098613	0.250187	1287.198730
8934.571607	0.100074	0.250187	1378.466675
8934.572499	0.101213	0.250187	1468.749023
8934.573406	0.100441	0.250187	1559.848755
8934.574321	0.098804	0.250187	1650.254150
8935.596490	0.715005	0.223278	314.602142
8935.597474	0.466750	0.223278	773.884644
8935.598386	0.100148	0.223278	865.219360
8935.599288	0.100345	0.223278	955.730957
8935.600210	0.098961	0.223278	1046.973145
8935.601113	0.098558	0.223278	1135.971313
8935.602010	0.100382	0.223278	1226.014038
8935.602897	0.100657	0.223278	1315.296631
8935.603846	0.098687	0.223278	1408.950195
8935.604739	0.099580	0.223278	1497.875244
8935.605642	0.101129	0.223278	1589.194824
8935.606533	0.099935	0.223278	1678.237183
8936.596974	0.714921	0.245893	338.872375
8936.597893	0.474364	0.245893	774.812866
8936.598800	0.100060	0.245893	865.567139
8936.599689	0.101345	0.245893	955.663025
8936.600617	0.098961	0.245893	1047.499023
8936.601533	0.099891	0.245893	1138.999512
8936.602432	0.101635	0.245893	1230.368896
8936.603319	0.100382	0.245893	1319.407837
8936.604254	0.098719	0.245893	1411.710571
8936.605146	0.100001	0.245893	1500.911621
8936.606065	0.101631	0.245893	1594.310425
8936.606957	0.099683	0.245893	1683.227295
8937.632203	0.728057	0.222963	315.976593
8937.633154	0.465637	0.222963	758.797607
8937.634068	0.098170	0.222963	848.525146
8937.634979	0.100177	0.222963	939.786377
8937.635874	0.100404	0.222963	1029.647949
8937.636808	0.099331	0.222963	1122.423096
8937.637705	0.099738	0.222963	1211.887695
8937.638604	0.100844	0.222963	1302.546021
8937.639491	0.100946	0.222963	1392.085205
8937.640437	0.099071	0.222963	1485.806396
8937.641335	0.099529	0.222963	1575.183228
8937.642234	0.101777	0.222963	1666.681030
8938.632652	0.728177	0.243560	319.669922
8938.633617	0.463605	0.243560	767.048462
8938.634520	0.099324	0.243560	856.737793
8938.635415	0.101550	0.243560	947.625305
8938.636325	0.100129	0.243560	1038.743042
8938.637264	0.098983	0.243560	1131.688232
8938.638170	0.100975	0.243560	1223.171875
8938.639067	0.101737	0.243560	1314.430054
8938.640003	0.099532	0.243560	1407.592407
8938.640906	0.099174	0.243560	1497.146118
8938.641804	0.101177	0.243560	1588.002808
8938.642693	0.100045	0.243560	1676.942993
8939.666894	0.714514	0.230638	315.100739
8939.667864	0.471416	0.230638	772.374268
8939.668770	0.100038	0.230638	863.008545
8939.669660	0.101462	0.230638	953.310059
8939.670596	0.099631	0.230638	1046.564941
8939.671493	0.100199	0.230638	1136.443359
8939.672413	0.101667	0.230638	1229.977417
8939.673296	0.100583	0.230638	1318.792603
8939.674276	0.099401	0.230638	1416.205200
8939.675190	0.100829	0.230638	1508.362793
8939.676103	0.101755	0.230638	1601.265503
8939.676994	0.099836	0.230638	1690.219727
8940.669387	0.715016	0.235431	314.606964
8940.670373	0.438512	0.235431	746.979736
8940.671283	0.099935	0.235431	837.920837
8940.672176	0.102510	0.235431	929.462036
8940.673117	0.099225	0.235431	1022.832642
8940.674018	0.099232	0.235431	1112.240845
8940.674923	0.101602	0.235431	1204.190308
8940.675812	0.101763	0.235431	1294.657349
8940.676774	0.099207	0.235431	1390.093994
8940.677678	0.099657	0.235431	1480.183960
8940.678579	0.101979	0.235431	1572.066772
8940.679503	0.099448	0.235431	1663.956909
8941.696517	0.608800	0.237244	293.441620
8941.697451	0.467201	0.237244	729.807251
8941.698349	0.100386	0.237244	819.953613
8941.699239	0.099943	0.237244	908.902527
8941.700187	0.098646	0.237244	1002.419189
8941.701097	0.099792	0.237244	1093.230347
8941.701993	0.100931	0.237244	1183.664917
8941.702926	0.099075	0.237244	1276.101562
8941.703832	0.098551	0.237244	1365.388794
8941.704727	0.100199	0.237244	1455.066895
8941.705617	0.101034	0.237244	1544.987061
8941.706565	0.098848	0.237244	1638.694580
8942.711253	0.710398	0.229373	315.416687
8942.712158	0.465472	0.229373	736.669189
8942.713047	0.099690	0.229373	825.293518
8942.714009	0.098800	0.229373	920.339172
8942.714914	0.101305	0.229373	1012.020142
8942.715845	0.101312	0.229373	1106.341797
8942.716736	0.099642	0.229373	1195.123169
8942.717678	0.100649	0.229373	1289.934937
8942.718585	0.100671	0.229373	1381.243896
8942.719476	0.101433	0.229373	1471.620850
8942.720421	0.099199	0.229373	1565.364136
8942.721328	0.100133	0.229373	1656.184814
8943.723989	0.686624	0.241893	308.980591
8943.724893	0.474858	0.241893	738.252563
8943.725806	0.099492	0.241893	829.088928
8943.726738	0.099236	0.241893	921.576721
8943.727645	0.100184	0.241893	1012.443909
8943.728542	0.101078	0.241893	1103.110718
8943.729477	0.098903	0.241893	1195.584595
8943.730384	0.098785	0.241893	1285.182983
8943.731292	0.101488	0.241893	1377.334106
8943.732184	0.100228	0.241893	1466.737671
8943.733128	0.098302	0.241893	1559.534790
8943.734032	0.099792	0.241893	1649.747192
8944.752075	0.719729	0.227048	314.521576
8944.753028	0.459397	0.227048	752.326904
8944.753947	0.099031	0.227048	843.336182
8944.754846	0.101616	0.227048	934.689148
8944.755773	0.100027	0.227048	1027.414062
8944.756684	0.099100	0.227048	1117.694458
8944.757594	0.100587	0.227048	1209.228760
8944.758490	0.101422	0.227048	1300.103027
8944.759427	0.099331	0.227048	1393.176270
8944.760323	0.099540	0.227048	1482.363892
8944.761223	0.101166	0.227048	1573.413086
8944.762113	0.100554	0.227048	1662.906372
8945.750512	0.631373	0.240414	297.376831
8945.751417	0.456984	0.240414	710.947021
8945.752307	0.100712	0.240414	800.580444
8945.753233	0.099503	0.240414	892.720398
8945.754166	0.100734	0.240414	986.704895
8945.755073	0.101096	0.240414	1078.399170
8945.755963	0.101979	0.240414	1169.160278
8945.756905	0.099097	0.240414	1262.509399
8945.757823	0.100269	0.240414	1354.555908
8945.758736	0.101375	0.240414	1447.110840
8945.759623	0.099979	0.240414	1535.792480
8945.760587	0.100009	0.240414	1632.200684
8946.792923	0.691813	0.224115	306.473053
8946.793845	0.449802	0.224115	721.190735
8946.794754	0.101488	0.224115	813.443359
8946.795696	0.099924	0.224115	907.572083
8946.796599	0.098745	0.224115	996.738892
8946.797495	0.101309	0.224115	1087.511353
8946.798382	0.100627	0.224115	1176.767944
8946.799344	0.098785	0.224115	1271.799561
8946.800241	0.099016	0.224115	1360.617065
8946.801141	0.100891	0.224115	1451.419067
8946.802023	0.100137	0.224115	1539.739624
8946.802956	0.098361	0.224115	1631.510010
8947.780053	0.696731	0.243411	312.832184
8947.780953	0.472288	0.243411	737.890991
8947.781840	0.100060	0.243411	826.644043
8947.782793	0.098617	0.243411	920.625977
8947.783698	0.100155	0.243411	1011.266296
8947.784598	0.101276	0.243411	1102.414307
8947.785533	0.099404	0.243411	1195.357300
8947.786444	0.098624	0.243411	1285.203979
8947.787348	0.102385	0.243411	1377.760254
8947.788239	0.100990	0.243411	1467.742310
8947.789186	0.098668	0.243411	1561.181152
8947.790090	0.099141	0.243411	1650.804321
8948.832710	0.721014	0.224813	313.641296
8948.833691	0.420168	0.224813	725.826538
8948.834591	0.099408	0.224813	815.293701
8948.835481	0.101909	0.224813	905.992859
8948.836422	0.099298	0.224813	999.432373
8948.837326	0.101931	0.224813	1091.578125
8948.838250	0.101235	0.224813	1185.119629
8948.839144	0.101265	0.224813	1275.650269
8948.840085	0.099470	0.224813	1369.251709
8948.841002	0.101364	0.224813	1462.202026
8948.841926	0.101678	0.224813	1556.152954
8948.842820	0.100082	0.224813	1645.626099
8949.812707	0.687352	0.240289	312.745300
8949.813634	0.454087	0.240289	733.683838
8949.814523	0.101327	0.240289	823.763428
8949.815449	0.099221	0.240289	915.642273
8949.816356	0.098785	0.240289	1005.240601
8949.817262	0.100917	0.240289	1096.671143
8949.818152	0.101019	0.240289	1186.578369
8949.819103	0.098632	0.240289	1280.376953
8949.820006	0.099518	0.240289	1370.241577
8949.820913	0.101968	0.240289	1462.726318
8949.821803	0.099950	0.240289	1551.681763
8949.822737	0.098800	0.240289	1643.961060
8950.870488	0.691106	0.230992	306.851044
8950.871387	0.467446	0.230992	727.085266
8950.872350	0.098276	0.230992	821.725403
8950.873256	0.100111	0.230992	912.426025
8950.874155	0.101667	0.230992	1003.825073
8950.875060	0.100525	0.230992	1094.800049
8950.875986	0.099020	0.230992	1186.492310
8950.876896	0.100972	0.230992	1278.376587
8950.877791	0.101422	0.230992	1369.149414
8950.878728	0.099049	0.230992	1461.958374
8950.879632	0.098357	0.230992	1550.873047
8950.880534	0.100814	0.230992	1641.807495
8951.847405	0.645341	0.236043	296.856659
8951.848303	0.476495	0.236043	724.749512
8951.849189	0.100510	0.236043	813.801575
8951.850160	0.100481	0.236043	911.368591
8951.851057	0.100800	0.236043	1001.785767
8951.851980	0.100712	0.236043	1094.742676
8951.852873	0.100748	0.236043	1184.710937
8951.853837	0.100697	0.236043	1281.782837
8951.854753	0.101503	0.236043	1374.759277
8951.855645	0.100942	0.236043	1464.799927
8951.856591	0.099972	0.236043	1559.373413
8951.857493	0.100942	0.236043	1650.423462
8952.902106	0.678516	0.235028	301.939453
8952.903031	0.471742	0.235028	738.300781
8952.903939	0.101177	0.235028	830.169312
8952.904826	0.099899	0.235028	918.779419
8952.905765	0.099272	0.235028	1011.996277
8952.906680	0.100675	0.235028	1104.113892
8952.907575	0.101517	0.235028	1194.971924
8952.908509	0.099529	0.235028	1287.931885
8952.909416	0.099078	0.235028	1377.796021
8952.910312	0.101840	0.235028	1469.044312
8952.911198	0.100950	0.235028	1558.485718
8952.912152	0.098844	0.235028	1652.782837
8953.885129	0.727866	0.232289	315.166046
8953.886087	0.467725	0.232289	763.246216
8953.887001	0.100770	0.232289	855.350220
8953.887925	0.101217	0.232289	948.874756
8953.888815	0.100715	0.232289	1038.511353
8953.889765	0.100664	0.232289	1134.142212
8953.890662	0.101851	0.232289	1225.502197
8953.891548	0.101847	0.232289	1315.738525
8953.892481	0.099836	0.232289	1408.885864
8953.893398	0.102352	0.232289	1502.742920
8953.894310	0.101682	0.232289	1595.477051
8953.895198	0.101122	0.232289	1685.273193
8954.935755	0.692007	0.238440	304.483002
8954.936661	0.475613	0.238440	735.388184
8954.937551	0.101224	0.238440	825.477905
8954.938515	0.099012	0.238440	920.925903
8954.939413	0.099628	0.238440	1010.391602
8954.940309	0.102173	0.238440	1101.938477
8954.941194	0.100521	0.238440	1190.899780
8954.942144	0.099082	0.238440	1285.027710
8954.943043	0.100931	0.238440	1375.765015
8954.943943	0.101832	0.238440	1467.414062
8954.944882	0.099335	0.238440	1560.689331
8954.945788	0.098617	0.238440	1650.036255
8955.921918	0.721560	0.232672	353.564423
8955.922850	0.465974	0.232672	787.852295
8955.923758	0.101144	0.232672	879.690857
8955.924646	0.100466	0.232672	968.904907
8955.925598	0.099163	0.232672	1063.307739
8955.926510	0.101067	0.232672	1155.480713
8955.927410	0.101799	0.232672	1247.100098
8955.928299	0.099602	0.232672	1335.646362
8955.929243	0.098829	0.232672	1428.941284
8955.930137	0.100122	0.232672	1518.450439
8955.931025	0.101060	0.232672	1608.191284
8955.931954	0.099196	0.232672	1700.343994
8956.968404	0.677563	0.239496	298.805511
8956.969325	0.472130	0.239496	733.637329
8956.970228	0.101104	0.239496	824.933777
8956.971131	0.100184	0.239496	915.400208
8956.972061	0.098965	0.239496	1007.437500
8956.972968	0.101986	0.239496	1099.938843
8956.973861	0.102034	0.239496	1191.054932
8956.974796	0.099086	0.239496	1283.700073
8956.975691	0.099071	0.239496	1372.368652
8956.976594	0.103546	0.239496	1465.870850
8956.977482	0.100679	0.239496	1555.273560
8956.978412	0.098679	0.239496	1647.045166
8957.958609	0.700441	0.228756	310.295227
8957.959544	0.472112	0.228756	751.719788
8957.960448	0.100854	0.228756	842.892273
8957.961385	0.099027	0.228756	935.680664
8957.962295	0.099053	0.228756	1025.818604
8957.963203	0.102023	0.228756	1118.455200
8957.964093	0.100693	0.228756	1208.072266
8957.965045	0.098606	0.228756	1301.945068
8957.965953	0.099701	0.228756	1392.473511
8957.966841	0.101239	0.228756	1482.373779
8957.967764	0.099294	0.228756	1574.022583
8957.968679	0.098258	0.228756	1663.928711
8959.003093	0.714338	0.238195	321.452271
8959.004026	0.467450	0.238195	757.583130
8959.004931	0.100382	0.238195	848.428894
8959.005892	0.099781	0.238195	944.318909
8959.006795	0.100477	0.238195	1035.049927
8959.007718	0.101953	0.238195	1129.152710
8959.008605	0.100126	0.238195	1217.964233
8959.009557	0.101012	0.238195	1314.127686
8959.010460	0.101733	0.238195	1405.992920
8959.011345	0.100701	0.238195	1495.113037
8959.012281	0.098741	0.238195	1587.535034
8959.013184	0.101532	0.238195	1679.218384
8959.994379	0.721692	0.229038	363.011017
8959.995302	0.455394	0.229038	783.339966
8959.996213	0.100741	0.229038	875.114990
8959.997103	0.100884	0.229038	964.901550
8959.998046	0.098998	0.229038	1058.256470
8959.998952	0.099829	0.229038	1148.701660
8959.999862	0.100803	0.229038	1240.432617
8960.000751	0.099836	0.229038	1329.187256
8960.001690	0.098419	0.229038	1421.602905
8960.002592	0.100591	0.229038	1512.335815
8960.003482	0.101074	0.229038	1602.291870
8960.004415	0.099188	0.229038	1694.834473
8961.037830	0.550012	0.238851	275.006104
8961.038749	0.461766	0.238851	699.369385
8961.039647	0.101118	0.238851	790.173462
8961.040537	0.100236	0.238851	879.383118
8961.041493	0.099210	0.238851	974.228088
8961.042397	0.100291	0.238851	1064.890747
8961.043296	0.100642	0.238851	1155.368042
8961.044238	0.100627	0.238851	1250.159058
8961.045136	0.098906	0.238851	1338.976807
8961.046037	0.100338	0.238851	1429.381470
8961.046924	0.101261	0.238851	1519.199951
8961.047858	0.098514	0.238851	1611.212402
8962.027996	0.686796	0.226798	304.937256
8962.028924	0.474884	0.226798	745.629639
8962.029818	0.101085	0.226798	835.999817
8962.030747	0.099646	0.226798	928.570923
8962.031654	0.099012	0.226798	1018.375244
8962.032564	0.101034	0.226798	1110.316162
8962.033466	0.100657	0.226798	1201.108521
8962.034403	0.098668	0.226798	1293.560669
8962.035296	0.098646	0.226798	1381.651733
8962.036197	0.100880	0.226798	1472.544678
8962.037086	0.100906	0.226798	1562.249878
8962.038017	0.098562	0.226798	1654.011108
8963.072465	0.686708	0.236060	306.271667
8963.073371	0.481761	0.236060	742.747559
8963.074305	0.098540	0.236060	834.783936
8963.075214	0.099686	0.236060	925.398743
8963.076119	0.101484	0.236060	1017.242126
8963.077008	0.100419	0.236060	1106.514404
8963.077966	0.099144	0.236060	1201.494629
8963.078878	0.100638	0.236060	1293.276855
8963.079772	0.101122	0.236060	1383.679810
8963.080715	0.099408	0.236060	1477.421509
8963.081612	0.098511	0.236060	1565.785645
8963.082507	0.100159	0.236060	1655.427734
8964.061655	0.682698	0.227274	305.165863
8964.062557	0.469922	0.227274	729.035400
8964.063456	0.100283	0.227274	819.190002
8964.064394	0.098752	0.227274	911.819824
8964.065306	0.099503	0.227274	1002.566711
8964.066205	0.100807	0.227274	1093.192139
8964.067118	0.099785	0.227274	1184.296021
8964.068040	0.098588	0.227274	1275.193848
8964.068946	0.099840	0.227274	1365.648926
8964.069839	0.100660	0.227274	1455.538696
8964.070774	0.098866	0.227274	1547.978394
8964.071674	0.098800	0.227274	1636.898437
8965.108172	0.714807	0.235568	315.229950
8965.109166	0.444855	0.235568	757.415527
8965.110080	0.101027	0.235568	849.753845
8965.110974	0.101620	0.235568	940.601990
8965.111908	0.100756	0.235568	1034.707764
8965.112815	0.101741	0.235568	1126.986572
8965.113732	0.101616	0.235568	1220.168701
8965.114626	0.101089	0.235568	1310.542114
8965.115584	0.101027	0.235568	1407.325562
8965.116502	0.100562	0.235568	1499.640991
8965.117393	0.101426	0.235568	1590.011353
8965.118345	0.098807	0.235568	1684.075928
8966.095322	0.706593	0.230211	318.673462
8966.096220	0.474309	0.230211	744.603027
8966.097156	0.098774	0.230211	837.055908
8966.098071	0.098862	0.230211	927.514893
8966.098978	0.100968	0.230211	1019.092896
8966.099869	0.100752	0.230211	1108.862915
8966.100807	0.098514	0.230211	1201.269409
8966.101708	0.099467	0.230211	1290.888794
8966.102610	0.100243	0.230211	1381.307861
8966.103501	0.100349	0.230211	1470.718872
8966.104449	0.098650	0.230211	1564.239014
8966.105356	0.100876	0.230211	1655.734009
8967.145936	0.700056	0.237876	308.024719
8967.146875	0.462400	0.237876	742.218201
8967.147794	0.098320	0.237876	832.574585
8967.148709	0.102275	0.237876	926.156555
8967.149598	0.101462	0.237876	1016.356628
8967.150531	0.098903	0.237876	1108.632690
8967.151436	0.099401	0.237876	1198.590210
8967.152338	0.101349	0.237876	1290.006836
8967.153225	0.100638	0.237876	1379.273071
8967.154169	0.098624	0.237876	1472.374390
8967.155074	0.100111	0.237876	1562.974976
8967.155971	0.101180	0.237876	1653.733765
8968.128976	0.705663	0.234368	311.197327
8968.129868	0.476986	0.234368	736.668884
8968.130825	0.098298	0.234368	830.740417
8968.131730	0.100082	0.234368	921.314453
8968.132618	0.101920	0.234368	1011.819580
8968.133554	0.099434	0.234368	1104.889404
8968.134464	0.098547	0.234368	1194.567505
8968.135368	0.101074	0.234368	1285.938599
8968.136255	0.101371	0.234368	1375.854492
8968.137197	0.098774	0.234368	1468.900024
8968.138094	0.099642	0.234368	1558.279175
8968.138994	0.101415	0.234368	1649.552490
8969.181658	0.676963	0.232390	303.956360
8969.182563	0.472694	0.232390	731.744507
8969.183509	0.098679	0.232390	825.095032
8969.184412	0.098738	0.232390	914.255249
8969.185312	0.100854	0.232390	1005.024292
8969.186199	0.100107	0.232390	1093.819580
8969.187133	0.098811	0.232390	1186.109131
8969.188037	0.100342	0.232390	1276.818115
8969.188943	0.101942	0.232390	1369.177734
8969.189832	0.100598	0.232390	1458.609497
8969.190782	0.099027	0.232390	1552.685303
8969.191695	0.100862	0.232390	1644.772095
8970.162640	0.705806	0.238883	309.142883
8970.163610	0.464751	0.238883	759.951294
8970.164508	0.098500	0.238883	848.404053
8970.165402	0.102041	0.238883	939.628723
8970.166288	0.100093	0.238883	1028.310913
8970.167220	0.098708	0.238883	1120.307251
8970.168129	0.099639	0.238883	1210.878784
8970.169028	0.103000	0.238883	1303.476196
8970.169953	0.099789	0.238883	1395.780884
8970.170860	0.098844	0.238883	1485.432373
8970.171769	0.101085	0.238883	1577.318848
8970.172668	0.100990	0.238883	1668.108887
8971.217361	0.691179	0.228752	306.192383
8971.218296	0.472566	0.228752	748.041504
8971.219198	0.100463	0.228752	838.658813
8971.220139	0.098917	0.228752	931.739929
8971.221039	0.099177	0.228752	1020.999451
8971.221940	0.100818	0.228752	1111.836304
8971.222825	0.100389	0.228752	1200.680908
8971.223763	0.099225	0.228752	1293.753784
8971.224659	0.100675	0.228752	1383.958618
8971.225555	0.100854	0.228752	1474.324219
8971.226481	0.100334	0.228752	1567.233887
8971.227393	0.098873	0.228752	1657.406372
8972.197370	0.735183	0.236579	356.563782
8972.198291	0.467355	0.236579	786.997437
8972.199221	0.100214	0.236579	880.196106
8972.200110	0.101005	0.236579	969.989258
8972.201056	0.099357	0.236579	1063.980713
8972.201959	0.099862	0.236579	1154.156128
8972.202881	0.101060	0.236579	1247.333008
8972.203770	0.099902	0.236579	1336.146240
8972.204709	0.100367	0.236579	1430.391235
8972.205611	0.100902	0.236579	1521.404907
8972.206500	0.100400	0.236579	1610.660889
8972.207435	0.099690	0.236579	1703.870972
8973.248970	0.714119	0.222786	313.498077
8973.249932	0.440929	0.222786	737.671753
8973.250842	0.098925	0.222786	827.693115
8973.251743	0.101195	0.222786	918.869873
8973.252627	0.099811	0.222786	1007.102600
8973.253576	0.099034	0.222786	1101.086304
8973.254480	0.099624	0.222786	1191.146484
8973.255372	0.101510	0.222786	1281.693359
8973.256299	0.099760	0.222786	1374.170410
8973.257205	0.099148	0.222786	1463.998413
8973.258110	0.100367	0.222786	1554.830933
8973.259012	0.101038	0.222786	1645.966797
8974.236103	0.728024	0.239270	317.418335
8974.237072	0.469768	0.239270	772.623535
8974.237992	0.100016	0.239270	864.638123
8974.238898	0.101917	0.239270	956.974487
8974.239791	0.100408	0.239270	1046.638550
8974.240727	0.099423	0.239270	1139.698120
8974.241627	0.101415	0.239270	1230.971436
8974.242519	0.101891	0.239270	1321.858154
8974.243465	0.099899	0.239270	1416.362305
8974.244371	0.100118	0.239270	1507.069580
8974.245270	0.101770	0.239270	1598.560791
8974.246156	0.100422	0.239270	1687.535034
8975.278539	0.713947	0.224136	313.422516
8975.279501	0.380999	0.224136	679.943115
8975.280417	0.098068	0.224136	769.773071
8975.281321	0.101455	0.224136	861.488464
8975.282210	0.101239	0.224136	951.489929
8975.283171	0.098690	0.224136	1046.331177
8975.284067	0.099280	0.224136	1135.285889
8975.284964	0.100719	0.224136	1225.630859
8975.285848	0.099562	0.224136	1313.643433
8975.286774	0.098826	0.224136	1405.156006
8975.287682	0.100060	0.224136	1496.010254
8975.288577	0.101840	0.224136	1587.156738
8976.277971	0.717876	0.240084	316.583282
8976.278863	0.470724	0.240084	736.468994
8976.279802	0.098262	0.240084	828.736755
8976.280711	0.099558	0.240084	919.235107
8976.281613	0.102242	0.240084	1011.457764
8976.282523	0.100177	0.240084	1102.618774
8976.283461	0.098683	0.240084	1195.183350
8976.284372	0.101093	0.240084	1287.278687
8976.285272	0.101290	0.240084	1378.439941
8976.286202	0.099020	0.240084	1470.528320
8976.287103	0.099049	0.240084	1559.771484
8976.288002	0.101693	0.240084	1651.193604
8977.308113	0.692531	0.228966	307.483551
8977.309063	0.468234	0.228966	752.305542
8977.309951	0.100173	0.228966	841.259460
8977.310925	0.100345	0.228966	938.995911
8977.311828	0.100942	0.228966	1030.146851
8977.312718	0.100774	0.228966	1119.835693
8977.313654	0.099247	0.228966	1212.730713
8977.314575	0.100463	0.228966	1305.256836
8977.315495	0.101693	0.228966	1398.814453
8977.316388	0.100587	0.228966	1488.638794
8977.317335	0.099639	0.228966	1582.996582
8977.318242	0.100181	0.228966	1673.860474
8978.318797	0.720729	0.238819	318.562103
8978.319770	0.438746	0.238819	745.462280
8978.320684	0.099679	0.238819	836.568848
8978.321578	0.101858	0.238819	927.629822
8978.322504	0.101268	0.238819	1021.404297
8978.323410	0.099089	0.238819	1111.179199
8978.324310	0.102034	0.238819	1203.009521
8978.325200	0.101613	0.238819	1293.444702
8978.326136	0.098888	0.238819	1386.003784
8978.327044	0.099247	0.238819	1476.119873
8978.327944	0.101583	0.238819	1567.544800
8978.328830	0.100280	0.238819	1656.392456
8979.336664	0.686686	0.231906	304.201782
8979.337567	0.476027	0.231906	734.053833
8979.338456	0.100195	0.231906	823.127441
8979.339408	0.099056	0.231906	917.429138
8979.340318	0.099712	0.231906	1008.166992
8979.341229	0.101946	0.231906	1101.039673
8979.342117	0.100448	0.231906	1190.237549
8979.343066	0.099064	0.231906	1284.249023
8979.343971	0.100485	0.231906	1375.187622
8979.344865	0.102012	0.231906	1466.386108
8979.345805	0.099276	0.231906	1559.705688
8979.346702	0.098676	0.231906	1648.217651
8980.358601	0.725050	0.236950	318.296967
8980.359594	0.465059	0.236950	780.100098
8980.360503	0.099093	0.236950	870.175659
8980.361400	0.102078	0.236950	961.739319
8980.362333	0.099346	0.236950	1054.428833
8980.363231	0.098763	0.236950	1143.118408
8980.364130	0.101052	0.236950	1233.964355
8980.365020	0.102561	0.236950	1325.243652
8980.365951	0.098595	0.236950	1417.035522
8980.366860	0.098987	0.236950	1507.014526
8980.367764	0.101162	0.236950	1598.465088
8980.368653	0.100430	0.236950	1687.747070
8981.366228	0.681361	0.240648	300.480225
8981.367155	0.466718	0.240648	733.127380
8981.368053	0.100884	0.240648	823.721008
8981.368987	0.099218	0.240648	916.390198
8981.369893	0.099214	0.240648	1006.277954
8981.370794	0.100814	0.240648	1097.111572
8981.371681	0.101184	0.240648	1186.861816
8981.372634	0.098983	0.240648	1281.192749
8981.373537	0.100367	0.240648	1371.824585
8981.374434	0.101118	0.240648	1462.527588
8981.375325	0.101074	0.240648	1552.584717
8981.376259	0.098760	0.240648	1644.826294
8982.396377	0.691747	0.229232	304.368591
8982.397289	0.472383	0.229232	735.181702
8982.398178	0.100133	0.229232	824.200012
8982.399108	0.100715	0.229232	917.865295
8982.400036	0.099639	0.229232	1010.329956
8982.400945	0.100576	0.229232	1101.753662
8982.401839	0.101085	0.229232	1192.123779
8982.402785	0.099075	0.229232	1285.848389
8982.403696	0.100225	0.229232	1377.152954
8982.404590	0.101964	0.229232	1468.308838
8982.405480	0.101034	0.229232	1558.229004
8982.406427	0.098910	0.229232	1651.896729
8983.398922	0.569462	0.242102	285.300323
8983.399847	0.456713	0.242102	707.759521
8983.400746	0.100624	0.242102	798.220276
8983.401636	0.100236	0.242102	887.429932
8983.402558	0.099067	0.242102	978.770081
8983.403468	0.099924	0.242102	1069.701172
8983.404366	0.101891	0.242102	1161.199219
8983.405286	0.100060	0.242102	1253.254272
8983.406186	0.098961	0.242102	1342.319336
8983.407095	0.100986	0.242102	1434.115967
8983.407989	0.101770	0.242102	1525.098389
8983.408940	0.098994	0.242102	1619.241821
8984.433113	0.687085	0.230452	308.501160
8984.434016	0.469611	0.230452	732.559509
8984.434904	0.099917	0.230452	821.285767
8984.435866	0.099060	0.230452	916.581543
8984.436776	0.100587	0.230452	1008.115845
8984.437669	0.101279	0.230452	1098.558228
8984.438601	0.099606	0.230452	1191.390747
8984.439501	0.098917	0.230452	1280.416260
8984.440399	0.101737	0.230452	1371.776123
8984.441285	0.100854	0.230452	1461.133179
8984.442232	0.098892	0.230452	1554.783569
8984.443125	0.098932	0.230452	1643.129761
8985.432548	0.676322	0.246026	307.726532
8985.433472	0.467490	0.246026	739.687500
8985.434360	0.100994	0.246026	829.369873
8985.435288	0.099408	0.246026	921.620483
8985.436191	0.098987	0.246026	1011.005554
8985.437095	0.100946	0.246026	1102.260742
8985.437983	0.101104	0.246026	1192.040649
8985.438933	0.099012	0.246026	1286.102539
8985.439843	0.099379	0.246026	1376.537109
8985.440740	0.101862	0.246026	1467.906982
8985.441653	0.099880	0.246026	1559.097778
8985.442579	0.098562	0.246026	1650.366211
8986.466779	0.687019	0.224108	311.219604
8986.467672	0.479528	0.224108	739.437744
8986.468607	0.098401	0.224108	831.442566
8986.469515	0.099679	0.224108	921.951050
8986.470420	0.101232	0.224108	1013.565735
8986.471309	0.101027	0.224108	1103.378418
8986.472262	0.099012	0.224108	1197.737305
8986.473168	0.100532	0.224108	1288.819458
8986.474064	0.103125	0.224108	1381.219482
8986.474984	0.100005	0.224108	1473.223999
8986.475889	0.098870	0.224108	1562.701050
8986.476796	0.100323	0.224108	1653.694458
8987.469261	0.700946	0.247109	311.920990
8987.470240	0.443163	0.247109	745.777405
8987.471166	0.100404	0.247109	838.751587
8987.472061	0.102004	0.247109	930.045532
8987.472998	0.101539	0.247109	1025.187866
8987.473889	0.100338	0.247109	1114.589111
8987.474809	0.101781	0.247109	1208.227661
8987.475708	0.100302	0.247109	1298.398682
8987.476652	0.101323	0.247109	1394.047852
8987.477555	0.101869	0.247109	1486.035522
8987.478484	0.101294	0.247109	1580.137573
8987.479377	0.099972	0.247109	1669.412476
8988.500430	0.719509	0.223246	315.864594
8988.501355	0.469966	0.223246	750.583008
8988.502276	0.098394	0.223246	841.203491
8988.503187	0.100902	0.223246	933.125305
8988.504085	0.101554	0.223246	1024.320801
8988.505020	0.099598	0.223246	1117.445312
8988.505924	0.099276	0.223246	1207.190918
8988.506831	0.100704	0.223246	1298.529785
8988.507722	0.101437	0.223246	1388.909912
8988.508675	0.098925	0.223246	1483.185059
8988.509580	0.099569	0.223246	1573.295044
8988.510471	0.101188	0.223246	1663.453369
8989.503984	0.636658	0.250018	296.045837
8989.504896	0.475554	0.250018	729.751221
8989.505857	0.099283	0.250018	825.162598
8989.506766	0.100415	0.250018	916.439880
8989.507691	0.100807	0.250018	1009.686279
8989.508581	0.100767	0.250018	1099.368530
8989.509515	0.099653	0.250018	1192.444702
8989.510417	0.100609	0.250018	1283.194092
8989.511306	0.101495	0.250018	1373.423462
8989.512243	0.099430	0.250018	1466.589355
8989.513165	0.100562	0.250018	1559.307129
8989.514072	0.100719	0.250018	1650.659302
8990.535134	0.638298	0.223133	287.872559
8990.536059	0.467897	0.223133	720.677002
8990.536952	0.101243	0.223133	811.086731
8990.537893	0.100012	0.223133	905.198242
8990.538804	0.099390	0.223133	995.742187
8990.539717	0.101188	0.223133	1088.126587
8990.540620	0.100785	0.223133	1179.135376
8990.541555	0.098815	0.223133	1271.527100
8990.542460	0.099500	0.223133	1361.574219
8990.543358	0.101323	0.223133	1452.562500
8990.544246	0.100027	0.223133	1541.386353
8990.545196	0.098573	0.223133	1635.030762
8991.539675	0.676384	0.251585	304.372925
8991.540584	0.472639	0.251585	734.001892
8991.541499	0.099313	0.251585	824.873047
8991.542424	0.099049	0.251585	916.493469
8991.543328	0.101155	0.251585	1007.937378
8991.544217	0.101840	0.251585	1098.472778
8991.545160	0.099012	0.251585	1191.841553
8991.546065	0.099668	0.251585	1282.041016
8991.546963	0.100811	0.251585	1372.568848
8991.547859	0.100393	0.251585	1462.520996
8991.548795	0.098302	0.251585	1554.531616
8991.549696	0.100774	0.251585	1645.328857
8992.569807	0.714580	0.221400	313.700684
8992.570701	0.483402	0.221400	745.862183
8992.571659	0.098738	0.221400	840.453003
8992.572568	0.100162	0.221400	931.500610
8992.573463	0.101862	0.221400	1022.666748
8992.574403	0.100269	0.221400	1116.919189
8992.575309	0.098866	0.221400	1206.491699
8992.576206	0.100038	0.221400	1296.225586
8992.577093	0.101741	0.221400	1386.469604
8992.578030	0.098481	0.221400	1478.746704
8992.578936	0.098994	0.221400	1568.435425
8992.579837	0.100221	0.221400	1658.734497
8993.574402	0.736256	0.249442	362.974243
8993.575337	0.456438	0.249442	789.743774
8993.576242	0.101444	0.249442	881.550659
8993.577131	0.101726	0.249442	971.985168
8993.578088	0.098712	0.249442	1066.452759
8993.578985	0.099825	0.249442	1155.996216
8993.579883	0.101228	0.249442	1246.898926
8993.580786	0.100027	0.249442	1337.223145
8993.581721	0.098467	0.249442	1429.289551
8993.582619	0.100367	0.249442	1519.419556
8993.583517	0.099983	0.249442	1609.204224
8993.584450	0.099053	0.249442	1701.620361
8994.605525	0.686865	0.222750	303.594421
8994.606455	0.477374	0.222750	747.552490
8994.607351	0.101536	0.222750	838.528442
8994.608265	0.099617	0.222750	929.578125
8994.609191	0.100558	0.222750	1022.694702
8994.610084	0.100737	0.222750	1112.653076
8994.610969	0.101455	0.222750	1202.440796
8994.611901	0.098859	0.222750	1294.577026
8994.612811	0.101290	0.222750	1386.751221
8994.613724	0.100668	0.222750	1478.660889
8994.614620	0.101521	0.222750	1569.623657
8994.615574	0.099177	0.222750	1664.238770
8995.610058	0.713932	0.250086	312.702148
8995.611021	0.448718	0.250086	744.817810
8995.611934	0.098800	0.250086	835.022278
8995.612840	0.100854	0.250086	926.396423
8995.613729	0.100851	0.250086	1016.052795
8995.614682	0.098569	0.250086	1109.989380
8995.615590	0.100529	0.250086	1201.269287
8995.616485	0.101052	0.250086	1291.711060
8995.617424	0.100104	0.250086	1385.708496
8995.618324	0.098866	0.250086	1474.687866
8995.619222	0.100371	0.250086	1564.821045
8995.620120	0.101473	0.250086	1655.944092
8996.640199	0.733440	0.222859	319.046356
8996.641186	0.462063	0.222859	775.102539
8996.642096	0.098734	0.222859	864.950623
8996.642997	0.101268	0.222859	956.193359
8996.643920	0.099327	0.222859	1047.872559
8996.644824	0.098602	0.222859	1137.009033
8996.645730	0.100162	0.222859	1227.756104
8996.646620	0.101561	0.222859	1318.145630
8996.647560	0.098774	0.222859	1410.993530
8996.648458	0.098917	0.222859	1499.821167
8996.649361	0.100847	0.222859	1590.886108
8996.650249	0.102297	0.222859	1681.726196
8997.641701	0.729276	0.249115	338.384125
8997.642664	0.442386	0.249115	764.402283
8997.643585	0.101191	0.249115	857.599548
8997.644496	0.100920	0.249115	949.538025
8997.645452	0.100459	0.249115	1045.576782
8997.646362	0.100503	0.249115	1137.034424
8997.647287	0.100631	0.249115	1230.118164
8997.648178	0.101089	0.249115	1320.188354
8997.649133	0.101825	0.249115	1417.431152
8997.650061	0.101071	0.249115	1511.224609
8997.650955	0.101470	0.249115	1601.938599
8997.651883	0.100499	0.249115	1695.201904
8998.676944	0.715192	0.220784	317.545105
8998.677913	0.470933	0.220784	773.878784
8998.678822	0.099932	0.220784	864.716614
8998.679718	0.101345	0.220784	955.521912
8998.680648	0.099463	0.220784	1048.022461
8998.681556	0.099001	0.220784	1137.915771
8998.682455	0.100620	0.220784	1228.373291
8998.683345	0.101082	0.220784	1318.335815
8998.684291	0.099031	0.220784	1412.018921
8998.685202	0.100613	0.220784	1503.677124
8998.686092	0.101151	0.220784	1593.701660
8998.687002	0.101722	0.220784	1686.269043
8999.676367	0.728090	0.246348	321.815582
8999.677260	0.472668	0.246348	743.908569
8999.678205	0.098679	0.246348	837.160400
8999.679117	0.100056	0.246348	928.411621
8999.680013	0.101686	0.246348	1019.522095
8999.680945	0.098972	0.246348	1111.764160
8999.681858	0.099957	0.246348	1203.025146
8999.682761	0.101261	0.246348	1294.463867
8999.683649	0.101045	0.246348	1384.191772
8999.684595	0.098848	0.246348	1477.701660
8999.685484	0.100745	0.246348	1567.263672
8999.686406	0.101228	0.246348	1660.595947
